TEXTURE AT STRAIN =    1.0000
   1.645   1.645   0.364  <-- length of average ellipsoid axes for phase
  -10.73    0.00    0.00  <-- Euler angles of average ellipsoid axes for phase
B       500
   97.88  108.47   12.69   0.0020000
 -158.39   37.92   88.35   0.0020000
  160.30   20.27   50.78   0.0020000
  150.22   89.68   41.06   0.0020000
  134.96   62.47    2.69   0.0020000
   26.88   18.10 -133.73   0.0020000
    8.44   89.27  -38.63   0.0020000
 -138.02  147.75   -0.68   0.0020000
  -39.60   84.86  126.79   0.0020000
 -105.52  142.74 -176.53   0.0020000
  -63.38  151.50  -85.58   0.0020000
   50.83  158.13   96.96   0.0020000
   48.30   87.98   40.32   0.0020000
   25.81  120.62  177.70   0.0020000
   53.88  121.19   -2.28   0.0020000
  -78.31   66.28  174.97   0.0020000
  124.95   27.34 -178.36   0.0020000
   92.75   52.24    0.53   0.0020000
   87.39   54.79 -177.67   0.0020000
  -95.83   36.59  179.46   0.0020000
 -133.03  124.88   -2.19   0.0020000
   33.06  141.74  -90.74   0.0020000
  -80.45   19.20   49.22   0.0020000
 -155.19   21.95 -155.62   0.0020000
  130.33   89.70   54.22   0.0020000
  106.64   90.94  -51.70   0.0020000
  -65.47   92.54  -68.71   0.0020000
  -15.58   50.12  179.67   0.0020000
  -86.08   90.02 -115.65   0.0020000
  -13.96  133.02   -2.79   0.0020000
  113.87   88.91   58.80   0.0020000
  -17.21   38.14   -3.95   0.0020000
  165.91  128.13   92.18   0.0020000
  -81.78   70.71  -99.42   0.0020000
   -3.14  144.99  -94.81   0.0020000
   23.01   55.18  -92.29   0.0020000
  -22.69  150.07 -174.00   0.0020000
 -109.74   50.50 -179.78   0.0020000
 -130.51   91.15  122.95   0.0020000
   36.48   61.59   88.00   0.0020000
 -102.28  135.92   87.93   0.0020000
  107.49   71.35   98.84   0.0020000
  157.00   62.82 -176.57   0.0020000
  -25.01   34.37   98.28   0.0020000
  160.81   53.59  -91.34   0.0020000
 -152.97   90.01 -137.37   0.0020000
  -82.51   46.12    0.50   0.0020000
  134.74   88.91  132.58   0.0020000
  -26.83   46.07 -179.18   0.0020000
  -52.71   42.00 -179.46   0.0020000
  -52.27   33.36  -88.58   0.0020000
  -55.92   90.80  147.46   0.0020000
   36.88   92.67 -135.31   0.0020000
 -147.04  153.80   -8.35   0.0020000
   77.91   75.86 -144.89   0.0020000
  -89.07  125.17   -1.24   0.0020000
   80.93  118.46  -86.48   0.0020000
    9.32   42.57    1.27   0.0020000
  -71.28   18.34  -17.60   0.0020000
   47.22   89.92  119.94   0.0020000
  147.61   24.92   -2.62   0.0020000
   -2.52   93.69  152.78   0.0020000
 -105.68   88.52 -133.92   0.0020000
  141.64  155.34  -81.73   0.0020000
  -52.50   88.97 -135.12   0.0020000
  178.20   85.14 -147.34   0.0020000
  -25.87  147.46 -176.90   0.0020000
   28.15  121.21 -169.79   0.0020000
 -135.39   40.63   89.74   0.0020000
 -118.65   87.19 -147.98   0.0020000
   33.07   88.93   33.11   0.0020000
  -12.68  111.33  172.67   0.0020000
   75.03   23.66  165.76   0.0020000
 -118.66   89.86  -50.10   0.0020000
   18.94  150.66   92.98   0.0020000
  -83.38  155.04    6.39   0.0020000
  -32.99  142.47 -178.74   0.0020000
  125.65   25.91   76.24   0.0020000
  134.26   56.07   89.40   0.0020000
   -1.56  159.40   40.08   0.0020000
  171.74   53.70  179.03   0.0020000
   61.06   31.02  179.47   0.0020000
  -74.58  145.97   91.36   0.0020000
  -45.02  119.69 -177.84   0.0020000
   41.59   15.88   46.36   0.0020000
  153.42   57.65 -178.95   0.0020000
  175.24   89.68  137.14   0.0020000
   54.46   90.13  120.03   0.0020000
   19.49  117.55   84.37   0.0020000
   21.43   88.51  -50.01   0.0020000
  171.19   36.02    0.28   0.0020000
  117.53   34.06    1.04   0.0020000
   99.34   73.70  168.65   0.0020000
   66.64  143.99  -95.68   0.0020000
  -59.30  112.96   -4.15   0.0020000
 -133.61  154.98 -103.26   0.0020000
   85.55  142.59   93.34   0.0020000
   80.32   88.97  -55.05   0.0020000
   88.49   92.44  -54.79   0.0020000
  178.88   88.93   59.23   0.0020000
   69.44   88.06  -39.87   0.0020000
 -177.50   75.90   77.51   0.0020000
  145.69   52.02    2.47   0.0020000
  135.31  140.14   92.32   0.0020000
   38.36  108.51   86.88   0.0020000
  123.38   90.08  -46.66   0.0020000
   62.96   33.22    0.72   0.0020000
  -63.91   31.25  163.14   0.0020000
   10.88  121.18  -94.21   0.0020000
  -25.30   89.26 -124.49   0.0020000
  -25.57   36.01  -92.05   0.0020000
   65.07  123.45   88.01   0.0020000
  -85.71   94.33  130.39   0.0020000
 -136.99   67.69 -171.66   0.0020000
  107.47  114.84  -94.88   0.0020000
  151.32  133.27   -4.15   0.0020000
   89.71   81.82   22.19   0.0020000
  -31.20   35.38  -86.21   0.0020000
 -148.49  124.14    1.24   0.0020000
   41.12  138.22   -0.13   0.0020000
   55.98   21.25  -66.37   0.0020000
   13.91  111.30   91.05   0.0020000
   63.40   49.01  179.91   0.0020000
 -101.31   57.89  175.99   0.0020000
  164.67  148.11    2.92   0.0020000
   68.72  137.23    0.41   0.0020000
   89.33   85.13  -73.92   0.0020000
  155.14  142.64  -85.53   0.0020000
 -178.26   50.58 -102.21   0.0020000
  -14.47  148.17  -90.74   0.0020000
    1.23   63.06    2.01   0.0020000
 -128.30   90.69  128.72   0.0020000
   48.67   97.39 -110.30   0.0020000
  -70.21   46.39  -88.73   0.0020000
 -170.90  131.84 -178.62   0.0020000
  -75.10   95.06  -26.53   0.0020000
  -83.04   54.22   89.81   0.0020000
  160.46   89.29  143.28   0.0020000
  -65.84   87.81   27.84   0.0020000
   42.79  127.74  178.02   0.0020000
  -91.44  147.53   92.99   0.0020000
  108.10  136.64   90.99   0.0020000
 -176.53   56.08   90.05   0.0020000
   46.37   32.88   88.15   0.0020000
 -160.48  120.58   88.60   0.0020000
  140.24   91.78   39.77   0.0020000
  149.51   51.67   91.81   0.0020000
   94.54   90.09  121.15   0.0020000
   29.40   97.76  -89.42   0.0020000
   93.97   88.45  131.00   0.0020000
 -146.58  132.00   86.82   0.0020000
  -49.08   92.43  -43.64   0.0020000
   62.04   58.29    1.42   0.0020000
 -129.73   88.28   57.41   0.0020000
 -102.24   89.29 -122.15   0.0020000
  142.57  143.28  178.95   0.0020000
 -128.46  136.91  -88.63   0.0020000
    1.50  146.99    2.18   0.0020000
  166.13   93.34   65.38   0.0020000
  172.55   89.90 -142.51   0.0020000
   32.65  127.95   88.56   0.0020000
  123.90   46.71 -179.96   0.0020000
 -125.04   91.68   36.51   0.0020000
 -171.85  143.25 -172.83   0.0020000
   71.83   87.68   58.61   0.0020000
   48.69   93.10   43.77   0.0020000
  -44.75   20.75  145.48   0.0020000
   74.61   21.62  160.63   0.0020000
  104.17   91.23  161.55   0.0020000
  115.80   59.64  176.56   0.0020000
  -24.49   91.82 -122.37   0.0020000
  -17.04  149.45   -2.56   0.0020000
 -172.43   33.44 -179.91   0.0020000
 -103.29   90.14  -35.77   0.0020000
 -108.11  135.11    1.20   0.0020000
  143.05   90.47  -39.89   0.0020000
  162.60   92.09  133.10   0.0020000
 -163.58  128.67 -179.16   0.0020000
 -124.85   91.53  -56.58   0.0020000
  110.19   56.47  -89.46   0.0020000
  -28.89   44.42   89.25   0.0020000
  120.17   87.01 -155.83   0.0020000
 -137.75  125.47   91.67   0.0020000
 -114.50   85.35 -122.48   0.0020000
  118.00  106.16  103.95   0.0020000
  139.37   46.18    1.18   0.0020000
  165.49   62.59 -175.88   0.0020000
   49.76   93.74   63.19   0.0020000
 -166.21   91.09 -144.06   0.0020000
  152.17   88.74  -58.74   0.0020000
 -144.04   55.08  -88.33   0.0020000
  170.96   43.26  -84.31   0.0020000
  -43.87  137.77   -2.59   0.0020000
  -79.13   88.79   68.17   0.0020000
  -58.70   89.65  143.12   0.0020000
   71.75  119.80   -0.15   0.0020000
  139.09  148.08 -179.24   0.0020000
   49.06  153.90   86.63   0.0020000
   37.87  144.19 -177.95   0.0020000
  -99.37   47.56    1.12   0.0020000
  103.25  143.00  179.59   0.0020000
    3.32  130.86    4.37   0.0020000
   29.14   91.55 -128.87   0.0020000
  105.34   70.64  -98.68   0.0020000
  -41.38  115.99   -3.58   0.0020000
   49.54   88.94  -55.01   0.0020000
  140.62  141.20   -0.34   0.0020000
 -100.78  123.63   -0.02   0.0020000
   55.18   32.70   88.71   0.0020000
  -90.53  133.32  -86.37   0.0020000
  -88.16   49.47  -91.23   0.0020000
 -149.68   38.36    0.35   0.0020000
  -29.53  158.22 -114.80   0.0020000
   30.36   73.19  170.39   0.0020000
   -0.89  158.12 -175.96   0.0020000
  103.55   89.89  -50.54   0.0020000
   21.64   91.95 -135.51   0.0020000
   43.83   29.79 -176.02   0.0020000
   18.95   76.24 -165.45   0.0020000
 -154.94   56.85  179.02   0.0020000
  118.72  151.57   -6.52   0.0020000
 -155.47   89.20   30.06   0.0020000
 -160.93   88.06 -139.23   0.0020000
  -71.09  141.38  -86.80   0.0020000
  -43.00   76.39  167.10   0.0020000
  141.51   88.55 -147.08   0.0020000
  -31.03  125.62 -179.82   0.0020000
  -12.19   81.37   19.80   0.0020000
  -97.45   35.68 -177.24   0.0020000
 -147.50   81.34  -96.27   0.0020000
  -60.14   65.18  -94.01   0.0020000
   -1.77   87.15   26.85   0.0020000
  170.36  153.14   87.73   0.0020000
  128.50   55.18   87.20   0.0020000
 -145.72  149.78  175.24   0.0020000
 -162.43   92.89  115.32   0.0020000
  174.78   94.54 -114.57   0.0020000
 -105.90   91.19  149.02   0.0020000
   50.91   87.20 -117.30   0.0020000
 -131.55   88.96 -155.59   0.0020000
   24.36   63.30   -0.84   0.0020000
   47.89   47.32  -90.17   0.0020000
   32.79  146.00   86.85   0.0020000
  -64.94  147.65  -89.88   0.0020000
  -31.51   65.62  -91.65   0.0020000
  -65.21  119.11   86.49   0.0020000
 -131.86   91.53 -147.28   0.0020000
   73.99  141.92 -176.54   0.0020000
  -97.64   94.78   59.97   0.0020000
  -78.74  120.45  179.51   0.0020000
  -95.87  119.36   90.17   0.0020000
  119.23   60.36  -89.91   0.0020000
  -92.13   54.96 -179.58   0.0020000
  -39.22   54.04  179.78   0.0020000
   26.41   44.10   93.17   0.0020000
 -175.31   32.81    3.70   0.0020000
  -91.28  136.73 -179.94   0.0020000
   23.14   91.57   38.26   0.0020000
  -20.39  146.12  -84.38   0.0020000
  121.41   91.44 -133.92   0.0020000
 -124.86   58.21 -178.85   0.0020000
  -82.72   88.99  -62.36   0.0020000
   -6.40  144.05   87.36   0.0020000
  160.44   41.52   91.32   0.0020000
 -105.14  142.52  179.20   0.0020000
   19.48   31.18  -82.07   0.0020000
  -33.84  144.80    0.72   0.0020000
 -102.29  147.55    0.33   0.0020000
 -151.13   90.08  -51.75   0.0020000
  -44.04   94.04 -116.36   0.0020000
  -48.69   91.92  131.73   0.0020000
 -131.98  143.80  -92.65   0.0020000
 -130.85   95.63  -64.67   0.0020000
  -87.32   91.21  130.66   0.0020000
  -95.81   99.33  129.21   0.0020000
  -17.49  133.78  -87.91   0.0020000
 -108.18  131.98   -1.02   0.0020000
 -172.01  122.95    1.43   0.0020000
  143.98  143.47  179.07   0.0020000
   54.69   95.48   50.89   0.0020000
 -134.34  133.01  -84.91   0.0020000
  149.92   87.55  -42.62   0.0020000
 -142.68  144.83 -175.94   0.0020000
   74.00   57.63   90.43   0.0020000
 -144.33  149.03 -178.59   0.0020000
  -98.95   92.28  -44.35   0.0020000
   53.66  126.63   90.68   0.0020000
  140.79   88.92   53.76   0.0020000
  -44.14   92.18 -148.26   0.0020000
   -2.96   19.93 -145.36   0.0020000
  -53.93  135.06   87.62   0.0020000
  -23.60   36.63  176.21   0.0020000
   73.33   81.31 -159.50   0.0020000
  -65.57   49.34    0.57   0.0020000
  138.63  151.26  -87.28   0.0020000
  -31.40   56.13  176.40   0.0020000
  129.51   91.63 -146.31   0.0020000
 -110.20   85.82  153.16   0.0020000
  175.02  154.85  102.06   0.0020000
 -133.97  133.43  179.28   0.0020000
   26.50   55.57   -0.55   0.0020000
   63.55   36.75   92.74   0.0020000
  -44.51   32.73   87.99   0.0020000
 -155.69  123.34    0.06   0.0020000
  -58.68  161.63   30.94   0.0020000
  -38.89   90.17 -124.40   0.0020000
  -47.36   69.14  176.75   0.0020000
 -113.64   70.56  171.23   0.0020000
  156.01   95.46 -156.22   0.0020000
  -99.42  105.11   82.98   0.0020000
   28.05  126.79   92.00   0.0020000
  -55.28   91.75  133.49   0.0020000
 -154.53   46.37   91.89   0.0020000
 -144.76  134.46  178.12   0.0020000
 -112.28   43.00 -179.30   0.0020000
   58.59  100.46 -162.77   0.0020000
  -20.00   89.15   58.80   0.0020000
 -110.55   60.42   86.99   0.0020000
  -46.99   89.30 -146.03   0.0020000
 -172.79   90.31   30.63   0.0020000
  -15.98  146.84    2.40   0.0020000
  100.22   85.39 -113.01   0.0020000
  -43.65   89.24  148.65   0.0020000
   74.82  141.90 -173.48   0.0020000
  -10.60   32.17 -179.85   0.0020000
  -38.40   88.56 -113.57   0.0020000
  -29.53  136.99   91.78   0.0020000
    6.95   92.23   31.37   0.0020000
  113.20   72.25   -8.99   0.0020000
  178.77   89.16   34.28   0.0020000
  -51.15   90.99   55.45   0.0020000
   48.99  107.79  -82.01   0.0020000
  138.44  150.52   87.39   0.0020000
 -116.55   42.67   -0.20   0.0020000
   26.64  125.22   89.32   0.0020000
 -114.74   59.64   90.76   0.0020000
  -35.05  147.15   93.09   0.0020000
   70.09   97.50 -158.98   0.0020000
  -15.76   91.44 -123.47   0.0020000
  179.10   91.93  -37.57   0.0020000
  130.62   35.65    0.76   0.0020000
   58.67   96.19 -155.51   0.0020000
   69.64   43.74   87.00   0.0020000
   -2.32  145.87    0.50   0.0020000
  100.43   90.67   36.35   0.0020000
  155.94  136.86 -178.23   0.0020000
   65.95   65.91    3.65   0.0020000
  177.20  145.68    1.30   0.0020000
   61.26   55.36 -176.84   0.0020000
 -156.60   94.77   31.20   0.0020000
  147.36  135.76  -91.59   0.0020000
 -111.17   90.30   46.48   0.0020000
  -53.78  135.33  101.09   0.0020000
   88.89  106.70 -100.46   0.0020000
  151.43   31.09 -178.02   0.0020000
 -104.15   96.37  166.21   0.0020000
   20.86   94.01  -25.47   0.0020000
 -110.97   50.37   87.58   0.0020000
 -144.90   90.82   39.55   0.0020000
 -142.29   24.68 -104.11   0.0020000
  155.87   86.50  110.99   0.0020000
  -52.92  100.55   73.28   0.0020000
  160.69  125.87  179.77   0.0020000
 -159.11  112.35  -81.85   0.0020000
  135.89   55.78 -178.02   0.0020000
  171.30  143.72   -0.10   0.0020000
   22.26   90.11 -124.43   0.0020000
  117.68   89.37  135.25   0.0020000
  -54.03  151.60    2.48   0.0020000
  -42.23  109.82 -171.83   0.0020000
  156.06  143.34   -1.65   0.0020000
  108.65   47.30  178.44   0.0020000
 -111.86   56.18  -86.36   0.0020000
  -59.35   32.64  -89.01   0.0020000
    4.34  131.81  -89.91   0.0020000
   60.85   62.20  -88.37   0.0020000
  -66.91  150.93  -94.57   0.0020000
   -4.15   53.07  -88.01   0.0020000
   95.88   35.25  -87.89   0.0020000
  -43.28   54.96   88.86   0.0020000
  -94.29   51.82  -89.43   0.0020000
   -9.86  137.71   93.04   0.0020000
 -134.52  144.43  177.74   0.0020000
 -153.95   35.77   92.29   0.0020000
  -81.37  129.63   -1.96   0.0020000
   35.07   98.59  168.32   0.0020000
    8.83   90.91  -44.36   0.0020000
  117.04   38.08 -168.75   0.0020000
  131.25  143.78   93.05   0.0020000
  115.41   90.58  125.05   0.0020000
 -177.36  151.81  175.07   0.0020000
  130.20   90.22  -55.71   0.0020000
 -129.55   91.56  -61.41   0.0020000
  114.20   43.22  177.17   0.0020000
   33.82   81.59   70.59   0.0020000
 -127.64  145.70  -93.96   0.0020000
 -105.05  138.22  -88.58   0.0020000
  168.82   48.82  -92.29   0.0020000
  108.21   43.74    2.64   0.0020000
   72.97   60.50  -86.43   0.0020000
   87.09   33.74  -88.98   0.0020000
 -121.75   41.15   90.17   0.0020000
 -169.24   90.82   31.11   0.0020000
 -175.57   30.11   -5.08   0.0020000
   62.16   55.20 -178.53   0.0020000
 -147.95   90.72  -47.40   0.0020000
 -170.07  128.75  -90.09   0.0020000
 -129.12  128.42 -178.80   0.0020000
 -119.86   56.69  177.91   0.0020000
  -91.68   89.02   47.78   0.0020000
 -156.17   91.08   50.48   0.0020000
  171.11  151.15   -5.61   0.0020000
  -50.48   79.87 -108.70   0.0020000
    5.78   89.28 -112.33   0.0020000
  130.20  142.95  -90.04   0.0020000
   -2.63   52.06 -177.92   0.0020000
  -78.15   91.47   32.40   0.0020000
  -48.59   89.28 -145.22   0.0020000
 -168.88   40.21 -177.35   0.0020000
   27.34  161.82  -97.50   0.0020000
   98.60  138.75  177.08   0.0020000
  110.48   89.43 -155.53   0.0020000
  -11.70  130.97 -177.42   0.0020000
  150.99  138.95  -91.54   0.0020000
  -17.55   75.88   74.23   0.0020000
 -110.24  119.73  177.76   0.0020000
 -149.49  131.33   -0.16   0.0020000
 -162.09  121.12  -87.48   0.0020000
  -45.83  156.37  163.90   0.0020000
    6.05   61.32    3.29   0.0020000
  168.66  127.37   90.44   0.0020000
   65.87   66.46 -172.37   0.0020000
  146.84  139.69 -178.80   0.0020000
  -90.85   42.48  -90.23   0.0020000
  167.49   91.88  -31.73   0.0020000
   44.09   19.27 -146.97   0.0020000
   74.10   57.93   98.15   0.0020000
 -147.31   43.86   -0.27   0.0020000
  -89.00   51.37  178.16   0.0020000
 -140.80   88.49   27.55   0.0020000
  102.11  119.16   92.03   0.0020000
   66.19   93.18  -27.15   0.0020000
   -1.46   89.19   40.31   0.0020000
   -8.81  101.93  107.46   0.0020000
   51.17  161.21 -140.32   0.0020000
 -106.74  140.98   92.19   0.0020000
 -156.63   31.61 -179.17   0.0020000
   73.59   93.31  -63.09   0.0020000
  -79.19  116.20  176.40   0.0020000
  138.36   42.87   90.35   0.0020000
  146.10   26.95   -6.29   0.0020000
   74.02   92.03   47.42   0.0020000
  156.09   38.47    1.71   0.0020000
  160.85   91.23 -146.82   0.0020000
  147.32   29.05  -95.32   0.0020000
  127.24  120.20  -93.70   0.0020000
  -74.38   50.07  -82.93   0.0020000
 -105.81   59.17   92.31   0.0020000
  145.97   86.00   65.03   0.0020000
  -66.37   72.53 -167.94   0.0020000
   30.35   90.63  128.04   0.0020000
 -176.49   88.54   56.80   0.0020000
    4.88   91.30  -31.25   0.0020000
  -55.31  148.25    5.58   0.0020000
   62.86   48.54   91.78   0.0020000
    9.19  124.29   90.07   0.0020000
 -145.37   19.13 -142.38   0.0020000
  -48.46   89.44  138.86   0.0020000
  -21.46   47.50    0.43   0.0020000
   44.78  140.98  178.41   0.0020000
  -88.63  142.25   -3.91   0.0020000
 -160.84   26.90   96.29   0.0020000
  -28.52  126.41  -91.13   0.0020000
   58.87   91.43 -128.89   0.0020000
 -135.15  103.61  -74.86   0.0020000
  -15.89  148.37   91.49   0.0020000
  -98.74  137.67    1.40   0.0020000
  -66.89   78.20   17.35   0.0020000
  -79.27  147.64   -3.50   0.0020000
  153.26   28.79  -98.44   0.0020000
   -5.72   87.24  143.49   0.0020000
   31.76   67.28    3.23   0.0020000
 -151.58   91.59 -124.56   0.0020000
   27.62   42.80   -0.45   0.0020000
 -179.74   26.16 -172.54   0.0020000
  114.80   80.71 -162.61   0.0020000
  -62.58   35.18   94.33   0.0020000
 -107.08   84.21  158.03   0.0020000
  103.72   91.55  124.54   0.0020000
 -163.49  152.09  -95.01   0.0020000
 -120.64  120.08    1.23   0.0020000
 -127.18   61.01   88.13   0.0020000
   45.02   51.07   89.34   0.0020000
 -170.86  157.24  -16.22   0.0020000
 -165.78   90.17  -44.32   0.0020000
  -57.10  127.55    0.05   0.0020000
  105.43   77.92  -14.98   0.0020000
   38.61   92.54   53.52   0.0020000
   -0.68   94.00   51.35   0.0020000
 -125.91   90.51  -58.06   0.0020000
