   STRAIN    AVACS    MODE1    MODE2    MODE3
   0.0000  15.5516   0.3061   0.3668   0.3271
   0.0000  15.5522   0.3062   0.3663   0.3275
   0.0000  15.5503   0.3057   0.3681   0.3262
   0.0000  15.5451   0.3059   0.3672   0.3268
   0.0001  15.5491   0.3062   0.3663   0.3275
   0.0001  15.5582   0.3064   0.3655   0.3281
   0.0001  15.5732   0.3066   0.3648   0.3287
   0.0001  15.5856   0.3067   0.3640   0.3292
   0.0001  15.5813   0.3069   0.3633   0.3298
   0.0001  15.5924   0.3071   0.3626   0.3303
   0.0002  15.5965   0.3072   0.3620   0.3308
   0.0002  15.6198   0.3074   0.3613   0.3313
   0.0002  15.6304   0.3075   0.3607   0.3318
   0.0002  15.6379   0.3076   0.3602   0.3322
   0.0002  15.6401   0.3077   0.3596   0.3327
   0.0002  15.6463   0.3078   0.3591   0.3331
   0.0002  15.6664   0.3079   0.3586   0.3335
   0.0003  15.6755   0.3080   0.3581   0.3339
   0.0003  15.6987   0.3081   0.3576   0.3343
   0.0003  15.7046   0.3082   0.3571   0.3346
   0.0003  15.7126   0.3083   0.3567   0.3350
   0.0003  15.7401   0.3084   0.3563   0.3353
   0.0003  15.7455   0.3085   0.3559   0.3357
   0.0003  15.7599   0.3086   0.3555   0.3360
   0.0004  15.7863   0.3086   0.3551   0.3363
   0.0004  15.8021   0.3087   0.3547   0.3366
   0.0004  15.8175   0.3088   0.3544   0.3368
   0.0004  15.8469   0.3089   0.3541   0.3371
   0.0004  15.8512   0.3089   0.3537   0.3374
   0.0004  15.8711   0.3090   0.3534   0.3376
   0.0005  15.8947   0.3091   0.3531   0.3378
   0.0005  15.9175   0.3091   0.3528   0.3381
   0.0005  15.9270   0.3092   0.3525   0.3383
   0.0005  15.9669   0.3092   0.3523   0.3385
   0.0005  15.9818   0.3093   0.3520   0.3387
   0.0005  15.9836   0.3094   0.3517   0.3389
   0.0005  16.0040   0.3094   0.3515   0.3391
   0.0006  16.0328   0.3095   0.3513   0.3393
   0.0006  16.0512   0.3095   0.3510   0.3395
   0.0006  16.0546   0.3096   0.3508   0.3396
   0.0006  16.0663   0.3096   0.3506   0.3398
   0.0006  16.0695   0.3096   0.3504   0.3400
   0.0006  16.0741   0.3097   0.3502   0.3401
   0.0006  16.0786   0.3097   0.3500   0.3403
   0.0007  16.0919   0.3098   0.3498   0.3404
   0.0007  16.0917   0.3098   0.3496   0.3406
   0.0007  16.0932   0.3098   0.3494   0.3407
   0.0007  16.1147   0.3099   0.3493   0.3409
   0.0007  16.1168   0.3099   0.3491   0.3410
   0.0007  16.1380   0.3100   0.3489   0.3411
   0.0008  16.1707   0.3100   0.3488   0.3413
   0.0008  16.1768   0.3100   0.3486   0.3414
   0.0008  16.1903   0.3101   0.3485   0.3415
   0.0008  16.2009   0.3101   0.3483   0.3416
   0.0008  16.2063   0.3101   0.3482   0.3417
   0.0008  16.2142   0.3101   0.3480   0.3418
   0.0008  16.2327   0.3102   0.3479   0.3419
   0.0009  16.2338   0.3102   0.3478   0.3420
   0.0009  16.2357   0.3102   0.3476   0.3421
   0.0009  16.2448   0.3103   0.3475   0.3422
   0.0009  16.2468   0.3103   0.3474   0.3423
   0.0009  16.2516   0.3103   0.3473   0.3424
   0.0009  16.2550   0.3103   0.3472   0.3425
   0.0009  16.2605   0.3103   0.3470   0.3426
   0.0010  16.2639   0.3104   0.3469   0.3427
   0.0010  16.2762   0.3104   0.3468   0.3428
   0.0010  16.2769   0.3104   0.3467   0.3429
   0.0010  16.2815   0.3104   0.3466   0.3429
   0.0010  16.2835   0.3105   0.3465   0.3430
   0.0010  16.2847   0.3105   0.3464   0.3431
   0.0010  16.2855   0.3105   0.3463   0.3432
   0.0011  16.2863   0.3105   0.3462   0.3432
   0.0011  16.2868   0.3105   0.3462   0.3433
   0.0011  16.2862   0.3106   0.3461   0.3434
   0.0011  16.2864   0.3106   0.3460   0.3435
   0.0011  16.2875   0.3106   0.3459   0.3435
   0.0011  16.2918   0.3106   0.3458   0.3436
   0.0011  16.2946   0.3106   0.3457   0.3436
   0.0012  16.2938   0.3106   0.3457   0.3437
   0.0012  16.2939   0.3107   0.3456   0.3438
   0.0012  16.2971   0.3107   0.3455   0.3438
   0.0012  16.2970   0.3107   0.3454   0.3439
   0.0012  16.2964   0.3107   0.3454   0.3439
   0.0012  16.2987   0.3107   0.3453   0.3440
   0.0012  16.2990   0.3107   0.3452   0.3440
   0.0013  16.2991   0.3107   0.3452   0.3441
   0.0013  16.3006   0.3108   0.3451   0.3442
   0.0013  16.3017   0.3108   0.3450   0.3442
   0.0013  16.3014   0.3108   0.3450   0.3443
   0.0013  16.3013   0.3108   0.3449   0.3443
   0.0013  16.3010   0.3108   0.3448   0.3443
   0.0014  16.3010   0.3108   0.3448   0.3444
   0.0014  16.3013   0.3108   0.3447   0.3444
   0.0014  16.3009   0.3108   0.3447   0.3445
   0.0014  16.3014   0.3109   0.3446   0.3445
   0.0014  16.3011   0.3109   0.3446   0.3446
   0.0014  16.3014   0.3109   0.3445   0.3446
   0.0014  16.3009   0.3109   0.3445   0.3447
   0.0015  16.3100   0.3109   0.3444   0.3447
   0.0015  16.3292   0.3109   0.3444   0.3447
   0.0015  16.3296   0.3109   0.3443   0.3448
   0.0015  16.3303   0.3109   0.3443   0.3448
   0.0015  16.3299   0.3109   0.3442   0.3449
   0.0015  16.3293   0.3109   0.3442   0.3449
   0.0015  16.3302   0.3109   0.3441   0.3449
   0.0016  16.3318   0.3110   0.3441   0.3450
   0.0016  16.3296   0.3110   0.3440   0.3450
   0.0016  16.3291   0.3110   0.3440   0.3450
   0.0016  16.3284   0.3110   0.3440   0.3451
   0.0016  16.3309   0.3110   0.3439   0.3451
   0.0016  16.3296   0.3110   0.3439   0.3451
   0.0016  16.3301   0.3110   0.3438   0.3452
   0.0017  16.3294   0.3110   0.3438   0.3452
   0.0017  16.3310   0.3110   0.3438   0.3452
   0.0017  16.3319   0.3110   0.3437   0.3453
   0.0017  16.3332   0.3110   0.3437   0.3453
   0.0017  16.3348   0.3110   0.3436   0.3453
   0.0017  16.3362   0.3111   0.3436   0.3453
   0.0017  16.3418   0.3111   0.3436   0.3454
   0.0018  16.3409   0.3111   0.3435   0.3454
   0.0018  16.3432   0.3111   0.3435   0.3454
   0.0018  16.3421   0.3111   0.3435   0.3455
   0.0018  16.3422   0.3111   0.3434   0.3455
   0.0018  16.3419   0.3111   0.3434   0.3455
   0.0018  16.3420   0.3111   0.3434   0.3455
   0.0018  16.3413   0.3111   0.3433   0.3456
   0.0019  16.3403   0.3111   0.3433   0.3456
   0.0019  16.3397   0.3111   0.3433   0.3456
   0.0019  16.3394   0.3111   0.3432   0.3456
   0.0019  16.3412   0.3111   0.3432   0.3457
   0.0019  16.3410   0.3111   0.3432   0.3457
   0.0019  16.3410   0.3111   0.3431   0.3457
   0.0020  16.3408   0.3111   0.3431   0.3457
   0.0020  16.3405   0.3112   0.3431   0.3458
   0.0020  16.3407   0.3112   0.3431   0.3458
   0.0020  16.3404   0.3112   0.3430   0.3458
   0.0020  16.3390   0.3112   0.3430   0.3458
   0.0020  16.3395   0.3112   0.3430   0.3459
   0.0020  16.3396   0.3112   0.3429   0.3459
   0.0021  16.3404   0.3112   0.3429   0.3459
   0.0021  16.3403   0.3112   0.3429   0.3459
   0.0021  16.3412   0.3112   0.3429   0.3459
   0.0021  16.3412   0.3112   0.3428   0.3460
   0.0021  16.3409   0.3112   0.3428   0.3460
   0.0021  16.3423   0.3112   0.3428   0.3460
   0.0021  16.3419   0.3112   0.3428   0.3460
   0.0022  16.3407   0.3112   0.3427   0.3460
   0.0022  16.3406   0.3112   0.3427   0.3461
   0.0022  16.3407   0.3112   0.3427   0.3461
   0.0022  16.3401   0.3112   0.3427   0.3461
   0.0022  16.3404   0.3112   0.3426   0.3461
   0.0022  16.3404   0.3112   0.3426   0.3462
   0.0022  16.3402   0.3112   0.3426   0.3462
   0.0023  16.3402   0.3113   0.3426   0.3462
   0.0023  16.3402   0.3113   0.3425   0.3462
   0.0023  16.3402   0.3113   0.3425   0.3462
   0.0023  16.3404   0.3113   0.3425   0.3462
   0.0023  16.3401   0.3113   0.3425   0.3463
   0.0023  16.3401   0.3113   0.3424   0.3463
   0.0023  16.3415   0.3113   0.3424   0.3463
   0.0024  16.3413   0.3113   0.3424   0.3463
   0.0024  16.3412   0.3113   0.3424   0.3463
   0.0024  16.3417   0.3113   0.3423   0.3464
   0.0024  16.3419   0.3113   0.3423   0.3464
   0.0024  16.3418   0.3113   0.3423   0.3464
   0.0024  16.3498   0.3113   0.3423   0.3464
   0.0024  16.3665   0.3113   0.3422   0.3464
   0.0025  16.3723   0.3113   0.3422   0.3465
   0.0025  16.3724   0.3113   0.3422   0.3465
   0.0025  16.3724   0.3113   0.3422   0.3465
   0.0025  16.3737   0.3113   0.3422   0.3465
   0.0025  16.3737   0.3113   0.3421   0.3465
   0.0025  16.3737   0.3113   0.3421   0.3466
   0.0026  16.3740   0.3113   0.3421   0.3466
   0.0026  16.3734   0.3113   0.3421   0.3466
   0.0026  16.3739   0.3113   0.3420   0.3466
   0.0026  16.3732   0.3114   0.3420   0.3466
   0.0026  16.3766   0.3114   0.3420   0.3467
   0.0026  16.3762   0.3114   0.3420   0.3467
   0.0026  16.3763   0.3114   0.3419   0.3467
   0.0027  16.3773   0.3114   0.3419   0.3467
   0.0027  16.3780   0.3114   0.3419   0.3467
   0.0027  16.3778   0.3114   0.3419   0.3467
   0.0027  16.3778   0.3114   0.3418   0.3468
   0.0027  16.3768   0.3114   0.3418   0.3468
   0.0027  16.3761   0.3114   0.3418   0.3468
   0.0027  16.3763   0.3114   0.3418   0.3468
   0.0028  16.3760   0.3114   0.3418   0.3468
   0.0028  16.3738   0.3114   0.3417   0.3469
   0.0028  16.3745   0.3114   0.3417   0.3469
   0.0028  16.3743   0.3114   0.3417   0.3469
   0.0028  16.3754   0.3114   0.3417   0.3469
   0.0028  16.3753   0.3114   0.3416   0.3469
   0.0028  16.3738   0.3114   0.3416   0.3470
   0.0029  16.3721   0.3114   0.3416   0.3470
   0.0029  16.3721   0.3114   0.3416   0.3470
   0.0029  16.3737   0.3114   0.3415   0.3470
   0.0029  16.3742   0.3115   0.3415   0.3470
   0.0029  16.3742   0.3115   0.3415   0.3471
   0.0029  16.3745   0.3115   0.3415   0.3471
   0.0029  16.3742   0.3115   0.3414   0.3471
   0.0030  16.3742   0.3115   0.3414   0.3471
   0.0030  16.3725   0.3115   0.3414   0.3471
   0.0030  16.3718   0.3115   0.3413   0.3472
   0.0030  16.3718   0.3115   0.3413   0.3472
   0.0030  16.3702   0.3115   0.3413   0.3472
   0.0030  16.3702   0.3115   0.3413   0.3472
   0.0030  16.3703   0.3115   0.3412   0.3473
   0.0031  16.3704   0.3115   0.3412   0.3473
   0.0031  16.3708   0.3115   0.3412   0.3473
   0.0031  16.3706   0.3115   0.3412   0.3473
   0.0031  16.3706   0.3115   0.3411   0.3473
   0.0031  16.3705   0.3115   0.3411   0.3474
   0.0031  16.3707   0.3115   0.3411   0.3474
   0.0031  16.3710   0.3116   0.3410   0.3474
   0.0032  16.3683   0.3116   0.3410   0.3474
   0.0032  16.3682   0.3116   0.3410   0.3475
   0.0032  16.3678   0.3116   0.3410   0.3475
   0.0032  16.3676   0.3116   0.3409   0.3475
   0.0032  16.3674   0.3116   0.3409   0.3475
   0.0032  16.3675   0.3116   0.3409   0.3475
   0.0032  16.3669   0.3116   0.3408   0.3476
   0.0033  16.3661   0.3116   0.3408   0.3476
   0.0033  16.3678   0.3116   0.3408   0.3476
   0.0033  16.3678   0.3116   0.3407   0.3476
   0.0033  16.3680   0.3116   0.3407   0.3477
   0.0033  16.3680   0.3116   0.3407   0.3477
   0.0033  16.3679   0.3116   0.3406   0.3477
   0.0034  16.3682   0.3116   0.3406   0.3477
   0.0034  16.3682   0.3117   0.3406   0.3478
   0.0034  16.3678   0.3117   0.3405   0.3478
   0.0034  16.3678   0.3117   0.3405   0.3478
   0.0034  16.3678   0.3117   0.3405   0.3478
   0.0034  16.3681   0.3117   0.3404   0.3479
   0.0034  16.3678   0.3117   0.3404   0.3479
   0.0035  16.3675   0.3117   0.3404   0.3479
   0.0035  16.3673   0.3117   0.3403   0.3480
   0.0035  16.3674   0.3117   0.3403   0.3480
   0.0035  16.3673   0.3117   0.3403   0.3480
   0.0035  16.3672   0.3117   0.3402   0.3480
   0.0035  16.3675   0.3117   0.3402   0.3481
   0.0035  16.3675   0.3118   0.3401   0.3481
   0.0036  16.3673   0.3118   0.3401   0.3481
   0.0036  16.3671   0.3118   0.3401   0.3482
   0.0036  16.3674   0.3118   0.3400   0.3482
   0.0036  16.3676   0.3118   0.3400   0.3482
   0.0036  16.3674   0.3118   0.3400   0.3482
   0.0036  16.3673   0.3118   0.3399   0.3483
   0.0036  16.3671   0.3118   0.3399   0.3483
   0.0037  16.3668   0.3118   0.3398   0.3483
   0.0037  16.3669   0.3118   0.3398   0.3484
   0.0037  16.3651   0.3119   0.3397   0.3484
   0.0037  16.3656   0.3119   0.3397   0.3484
   0.0037  16.3654   0.3119   0.3397   0.3485
   0.0037  16.3654   0.3119   0.3396   0.3485
   0.0037  16.3654   0.3119   0.3396   0.3485
   0.0038  16.3634   0.3119   0.3395   0.3486
   0.0038  16.3635   0.3119   0.3395   0.3486
   0.0038  16.3631   0.3119   0.3394   0.3486
   0.0038  16.3628   0.3119   0.3394   0.3487
   0.0038  16.3600   0.3120   0.3393   0.3487
   0.0038  16.3599   0.3120   0.3393   0.3487
   0.0038  16.3595   0.3120   0.3393   0.3488
   0.0039  16.3596   0.3120   0.3392   0.3488
   0.0039  16.3596   0.3120   0.3392   0.3488
   0.0039  16.3587   0.3120   0.3391   0.3489
   0.0039  16.3584   0.3120   0.3391   0.3489
   0.0039  16.3582   0.3120   0.3390   0.3489
   0.0039  16.3576   0.3121   0.3390   0.3490
   0.0039  16.3576   0.3121   0.3389   0.3490
   0.0040  16.3570   0.3121   0.3389   0.3491
   0.0040  16.3557   0.3121   0.3388   0.3491
   0.0040  16.3551   0.3121   0.3388   0.3491
   0.0040  16.3554   0.3121   0.3387   0.3492
   0.0040  16.3546   0.3121   0.3387   0.3492
   0.0040  16.3523   0.3121   0.3386   0.3493
   0.0040  16.3516   0.3122   0.3385   0.3493
   0.0041  16.3496   0.3122   0.3385   0.3493
   0.0041  16.3483   0.3122   0.3384   0.3494
   0.0041  16.3476   0.3122   0.3384   0.3494
   0.0041  16.3473   0.3122   0.3383   0.3495
   0.0041  16.3467   0.3122   0.3383   0.3495
   0.0041  16.3459   0.3122   0.3382   0.3495
   0.0041  16.3440   0.3123   0.3381   0.3496
   0.0042  16.3430   0.3123   0.3381   0.3496
   0.0042  16.3430   0.3123   0.3380   0.3497
   0.0042  16.3413   0.3123   0.3380   0.3497
   0.0042  16.3375   0.3123   0.3379   0.3498
   0.0042  16.3359   0.3123   0.3378   0.3498
   0.0042  16.3367   0.3124   0.3378   0.3499
   0.0043  16.3347   0.3124   0.3377   0.3499
   0.0043  16.3349   0.3124   0.3377   0.3499
   0.0043  16.3355   0.3124   0.3376   0.3500
   0.0043  16.3355   0.3124   0.3375   0.3500
   0.0043  16.3358   0.3124   0.3375   0.3501
   0.0043  16.3356   0.3125   0.3374   0.3501
   0.0043  16.3360   0.3125   0.3373   0.3502
   0.0044  16.3350   0.3125   0.3373   0.3502
   0.0044  16.3328   0.3125   0.3372   0.3503
   0.0044  16.3325   0.3125   0.3371   0.3503
   0.0044  16.3317   0.3126   0.3371   0.3504
   0.0044  16.3314   0.3126   0.3370   0.3504
   0.0044  16.3306   0.3126   0.3369   0.3505
   0.0044  16.3324   0.3126   0.3368   0.3505
   0.0045  16.3317   0.3126   0.3368   0.3506
   0.0045  16.3302   0.3127   0.3367   0.3506
   0.0045  16.3306   0.3127   0.3366   0.3507
   0.0045  16.3311   0.3127   0.3366   0.3507
   0.0045  16.3306   0.3127   0.3365   0.3508
   0.0045  16.3318   0.3127   0.3364   0.3509
   0.0045  16.3323   0.3128   0.3363   0.3509
   0.0046  16.3319   0.3128   0.3362   0.3510
   0.0046  16.3293   0.3128   0.3362   0.3510
   0.0046  16.3290   0.3128   0.3361   0.3511
   0.0046  16.3287   0.3128   0.3360   0.3511
   0.0046  16.3289   0.3129   0.3359   0.3512
   0.0046  16.3289   0.3129   0.3359   0.3513
   0.0046  16.3286   0.3129   0.3358   0.3513
   0.0047  16.3272   0.3129   0.3357   0.3514
   0.0047  16.3273   0.3130   0.3356   0.3514
   0.0047  16.3280   0.3130   0.3355   0.3515
   0.0047  16.3271   0.3130   0.3354   0.3515
   0.0047  16.3280   0.3130   0.3353   0.3516
   0.0047  16.3274   0.3131   0.3353   0.3517
   0.0047  16.3280   0.3131   0.3352   0.3517
   0.0048  16.3298   0.3131   0.3351   0.3518
   0.0048  16.3292   0.3131   0.3350   0.3519
   0.0048  16.3283   0.3132   0.3349   0.3519
   0.0048  16.3301   0.3132   0.3348   0.3520
   0.0048  16.3283   0.3132   0.3347   0.3521
   0.0048  16.3276   0.3133   0.3346   0.3521
   0.0048  16.3256   0.3133   0.3345   0.3522
   0.0049  16.3247   0.3133   0.3344   0.3523
   0.0049  16.3231   0.3133   0.3343   0.3523
   0.0049  16.3217   0.3134   0.3342   0.3524
   0.0049  16.3212   0.3134   0.3341   0.3525
   0.0049  16.3197   0.3134   0.3340   0.3525
   0.0049  16.3192   0.3135   0.3340   0.3526
   0.0049  16.3208   0.3135   0.3338   0.3527
   0.0050  16.3212   0.3135   0.3337   0.3527
   0.0050  16.3201   0.3135   0.3336   0.3528
   0.0050  16.3179   0.3136   0.3335   0.3529
   0.0050  16.3176   0.3136   0.3334   0.3529
   0.0050  16.3180   0.3136   0.3333   0.3530
   0.0050  16.3177   0.3137   0.3332   0.3531
   0.0050  16.3168   0.3137   0.3331   0.3532
   0.0051  16.3205   0.3137   0.3330   0.3532
   0.0051  16.3207   0.3138   0.3329   0.3533
   0.0051  16.3194   0.3138   0.3328   0.3534
   0.0051  16.3204   0.3138   0.3327   0.3535
   0.0051  16.3207   0.3139   0.3326   0.3535
   0.0051  16.3218   0.3139   0.3325   0.3536
   0.0051  16.3208   0.3139   0.3324   0.3537
   0.0052  16.3202   0.3140   0.3322   0.3538
   0.0052  16.3234   0.3140   0.3321   0.3539
   0.0052  16.3235   0.3141   0.3320   0.3539
   0.0052  16.3225   0.3141   0.3319   0.3540
   0.0052  16.3258   0.3141   0.3318   0.3541
   0.0052  16.3232   0.3142   0.3317   0.3542
   0.0052  16.3227   0.3142   0.3315   0.3543
   0.0053  16.3242   0.3142   0.3314   0.3544
   0.0053  16.3241   0.3143   0.3313   0.3544
   0.0053  16.3245   0.3143   0.3312   0.3545
   0.0053  16.3246   0.3143   0.3310   0.3546
   0.0053  16.3235   0.3144   0.3309   0.3547
   0.0053  16.3285   0.3144   0.3308   0.3548
   0.0053  16.3326   0.3145   0.3307   0.3549
   0.0054  16.3324   0.3145   0.3305   0.3550
   0.0054  16.3340   0.3145   0.3304   0.3551
   0.0054  16.3363   0.3146   0.3303   0.3551
   0.0054  16.3412   0.3146   0.3301   0.3552
   0.0054  16.3464   0.3147   0.3300   0.3553
   0.0054  16.3483   0.3147   0.3299   0.3554
   0.0054  16.3492   0.3147   0.3297   0.3555
   0.0055  16.3499   0.3148   0.3296   0.3556
   0.0055  16.3654   0.3148   0.3295   0.3557
   0.0055  16.3651   0.3149   0.3293   0.3558
   0.0055  16.3670   0.3149   0.3292   0.3559
   0.0055  16.3665   0.3149   0.3291   0.3560
   0.0055  16.3655   0.3150   0.3289   0.3561
   0.0055  16.3663   0.3150   0.3288   0.3562
   0.0056  16.3663   0.3151   0.3286   0.3563
   0.0056  16.3656   0.3151   0.3285   0.3564
   0.0056  16.3775   0.3152   0.3284   0.3565
   0.0056  16.3831   0.3152   0.3282   0.3566
   0.0056  16.3878   0.3152   0.3281   0.3567
   0.0056  16.3906   0.3153   0.3279   0.3568
   0.0056  16.3938   0.3153   0.3278   0.3569
   0.0057  16.3928   0.3154   0.3276   0.3570
   0.0057  16.3936   0.3154   0.3275   0.3571
   0.0057  16.3941   0.3155   0.3273   0.3572
   0.0057  16.3935   0.3155   0.3272   0.3573
   0.0057  16.3957   0.3156   0.3270   0.3574
   0.0057  16.3947   0.3156   0.3269   0.3575
   0.0057  16.4027   0.3157   0.3267   0.3577
   0.0058  16.4040   0.3157   0.3265   0.3578
   0.0058  16.4049   0.3157   0.3264   0.3579
   0.0058  16.4218   0.3158   0.3262   0.3580
   0.0058  16.4272   0.3158   0.3261   0.3581
   0.0058  16.4316   0.3159   0.3259   0.3582
   0.0058  16.4324   0.3159   0.3257   0.3583
   0.0058  16.4395   0.3160   0.3256   0.3584
   0.0059  16.4417   0.3160   0.3254   0.3586
   0.0059  16.4469   0.3161   0.3252   0.3587
   0.0059  16.4536   0.3161   0.3251   0.3588
   0.0059  16.4569   0.3162   0.3249   0.3589
   0.0059  16.4605   0.3162   0.3247   0.3590
   0.0059  16.4623   0.3163   0.3246   0.3592
   0.0059  16.4649   0.3163   0.3244   0.3593
   0.0060  16.4661   0.3164   0.3242   0.3594
   0.0060  16.4664   0.3164   0.3240   0.3595
   0.0060  16.4664   0.3165   0.3239   0.3597
   0.0060  16.4666   0.3165   0.3237   0.3598
   0.0060  16.4733   0.3166   0.3235   0.3599
   0.0060  16.4729   0.3166   0.3233   0.3600
   0.0060  16.4803   0.3167   0.3231   0.3602
   0.0061  16.4833   0.3167   0.3230   0.3603
   0.0061  16.4875   0.3168   0.3228   0.3604
   0.0061  16.5017   0.3168   0.3226   0.3606
   0.0061  16.5033   0.3169   0.3224   0.3607
   0.0061  16.5049   0.3169   0.3222   0.3608
   0.0061  16.5074   0.3170   0.3220   0.3610
   0.0061  16.5077   0.3170   0.3219   0.3611
   0.0062  16.5088   0.3171   0.3217   0.3612
   0.0062  16.5107   0.3171   0.3215   0.3614
   0.0062  16.5065   0.3172   0.3213   0.3615
   0.0062  16.5069   0.3172   0.3211   0.3617
   0.0062  16.5218   0.3173   0.3209   0.3618
   0.0062  16.5233   0.3174   0.3207   0.3619
   0.0062  16.5225   0.3174   0.3205   0.3621
   0.0062  16.5216   0.3175   0.3203   0.3622
   0.0063  16.5282   0.3175   0.3201   0.3624
   0.0063  16.5466   0.3176   0.3199   0.3625
   0.0063  16.5517   0.3176   0.3197   0.3627
   0.0063  16.5546   0.3177   0.3195   0.3628
   0.0063  16.5544   0.3177   0.3193   0.3630
   0.0063  16.5589   0.3178   0.3191   0.3631
   0.0063  16.5591   0.3178   0.3189   0.3633
   0.0064  16.5617   0.3179   0.3187   0.3634
   0.0064  16.5661   0.3180   0.3185   0.3636
   0.0064  16.5706   0.3180   0.3183   0.3637
   0.0064  16.5753   0.3181   0.3181   0.3639
   0.0064  16.5739   0.3181   0.3179   0.3640
   0.0064  16.5712   0.3182   0.3176   0.3642
   0.0064  16.5924   0.3182   0.3174   0.3643
   0.0065  16.5915   0.3183   0.3172   0.3645
   0.0065  16.5931   0.3184   0.3170   0.3646
   0.0065  16.5939   0.3184   0.3168   0.3648
   0.0065  16.5978   0.3185   0.3166   0.3650
   0.0065  16.5954   0.3185   0.3164   0.3651
   0.0065  16.5963   0.3186   0.3161   0.3653
   0.0065  16.5987   0.3186   0.3159   0.3654
   0.0066  16.5969   0.3187   0.3157   0.3656
   0.0066  16.5994   0.3188   0.3155   0.3658
   0.0066  16.6093   0.3188   0.3153   0.3659
   0.0066  16.6071   0.3189   0.3150   0.3661
   0.0066  16.6080   0.3189   0.3148   0.3663
   0.0066  16.6207   0.3190   0.3146   0.3664
   0.0066  16.6258   0.3190   0.3144   0.3666
   0.0067  16.6332   0.3191   0.3141   0.3668
   0.0067  16.6316   0.3192   0.3139   0.3669
   0.0067  16.6442   0.3192   0.3137   0.3671
   0.0067  16.6424   0.3193   0.3135   0.3673
   0.0067  16.6407   0.3193   0.3132   0.3674
   0.0067  16.6560   0.3194   0.3130   0.3676
   0.0067  16.6550   0.3195   0.3128   0.3678
   0.0067  16.6546   0.3195   0.3125   0.3680
   0.0068  16.6581   0.3196   0.3123   0.3681
   0.0068  16.6721   0.3196   0.3121   0.3683
   0.0068  16.6818   0.3197   0.3118   0.3685
   0.0068  16.6823   0.3197   0.3116   0.3687
   0.0068  16.6885   0.3198   0.3113   0.3689
   0.0068  16.6946   0.3199   0.3111   0.3690
   0.0068  16.6964   0.3199   0.3109   0.3692
   0.0069  16.6976   0.3200   0.3106   0.3694
   0.0069  16.6976   0.3200   0.3104   0.3696
   0.0069  16.7201   0.3201   0.3101   0.3698
   0.0069  16.7239   0.3201   0.3099   0.3700
   0.0069  16.7401   0.3202   0.3097   0.3702
   0.0069  16.7462   0.3203   0.3094   0.3703
   0.0069  16.7516   0.3203   0.3092   0.3705
   0.0070  16.7577   0.3204   0.3089   0.3707
   0.0070  16.7748   0.3204   0.3087   0.3709
   0.0070  16.7756   0.3205   0.3084   0.3711
   0.0070  16.7797   0.3205   0.3082   0.3713
   0.0070  16.7858   0.3206   0.3079   0.3715
   0.0070  16.7915   0.3206   0.3077   0.3717
   0.0070  16.7968   0.3207   0.3074   0.3719
   0.0071  16.7998   0.3208   0.3072   0.3721
   0.0071  16.8060   0.3208   0.3069   0.3723
   0.0071  16.8153   0.3209   0.3067   0.3725
   0.0071  16.8197   0.3209   0.3064   0.3727
   0.0071  16.8230   0.3210   0.3062   0.3729
   0.0071  16.8386   0.3210   0.3059   0.3731
   0.0071  16.8482   0.3211   0.3057   0.3733
   0.0071  16.8539   0.3211   0.3054   0.3735
   0.0072  16.8537   0.3212   0.3051   0.3737
   0.0072  16.8577   0.3212   0.3049   0.3739
   0.0072  16.8619   0.3213   0.3046   0.3741
   0.0072  16.8649   0.3214   0.3044   0.3743
   0.0072  16.8776   0.3214   0.3041   0.3745
   0.0072  16.8828   0.3215   0.3039   0.3747
   0.0072  16.8856   0.3215   0.3036   0.3749
   0.0073  16.8909   0.3216   0.3033   0.3751
   0.0073  16.8948   0.3216   0.3031   0.3753
   0.0073  16.9013   0.3217   0.3028   0.3755
   0.0073  16.9026   0.3217   0.3026   0.3757
   0.0073  16.9123   0.3218   0.3023   0.3759
   0.0073  16.9143   0.3218   0.3021   0.3761
   0.0073  16.9224   0.3219   0.3018   0.3763
   0.0073  16.9343   0.3220   0.3015   0.3765
   0.0074  16.9377   0.3220   0.3013   0.3767
   0.0074  16.9389   0.3221   0.3010   0.3769
   0.0074  16.9430   0.3221   0.3008   0.3771
   0.0074  16.9504   0.3222   0.3005   0.3773
   0.0074  16.9551   0.3222   0.3002   0.3775
   0.0074  16.9587   0.3223   0.3000   0.3777
   0.0074  16.9633   0.3223   0.2997   0.3780
   0.0075  16.9650   0.3224   0.2995   0.3782
   0.0075  16.9641   0.3224   0.2992   0.3784
   0.0075  16.9737   0.3225   0.2989   0.3786
   0.0075  16.9818   0.3225   0.2987   0.3788
   0.0075  16.9724   0.3226   0.2984   0.3790
   0.0075  16.9742   0.3226   0.2982   0.3792
   0.0075  16.9753   0.3227   0.2979   0.3794
   0.0075  16.9800   0.3228   0.2976   0.3796
   0.0076  16.9800   0.3228   0.2974   0.3798
   0.0076  16.9865   0.3229   0.2971   0.3800
   0.0076  16.9941   0.3229   0.2969   0.3802
   0.0076  17.0014   0.3230   0.2966   0.3804
   0.0076  17.0038   0.3230   0.2963   0.3806
   0.0076  17.0093   0.3231   0.2961   0.3808
   0.0076  17.0117   0.3231   0.2958   0.3811
   0.0077  17.0151   0.3232   0.2956   0.3813
   0.0077  17.0241   0.3232   0.2953   0.3815
   0.0077  17.0280   0.3233   0.2950   0.3817
   0.0077  17.0319   0.3233   0.2948   0.3819
   0.0077  17.0368   0.3234   0.2945   0.3821
   0.0077  17.0384   0.3234   0.2943   0.3823
   0.0077  17.0406   0.3235   0.2940   0.3825
   0.0077  17.0438   0.3236   0.2937   0.3827
   0.0078  17.0511   0.3236   0.2935   0.3829
   0.0078  17.0618   0.3237   0.2932   0.3831
   0.0078  17.0670   0.3237   0.2930   0.3833
   0.0078  17.0706   0.3238   0.2927   0.3835
   0.0078  17.0723   0.3238   0.2925   0.3837
   0.0078  17.0807   0.3239   0.2922   0.3839
   0.0078  17.0853   0.3239   0.2919   0.3841
   0.0079  17.0988   0.3240   0.2917   0.3843
   0.0079  17.0984   0.3240   0.2914   0.3846
   0.0079  17.1067   0.3241   0.2912   0.3848
   0.0079  17.1124   0.3241   0.2909   0.3850
   0.0079  17.1187   0.3242   0.2907   0.3852
   0.0079  17.1266   0.3242   0.2904   0.3854
   0.0079  17.1290   0.3243   0.2902   0.3856
   0.0079  17.1365   0.3243   0.2899   0.3858
   0.0080  17.1436   0.3244   0.2897   0.3860
   0.0080  17.1534   0.3244   0.2894   0.3862
   0.0080  17.1757   0.3245   0.2891   0.3864
   0.0080  17.1778   0.3245   0.2889   0.3866
   0.0080  17.1804   0.3246   0.2886   0.3868
   0.0080  17.1742   0.3246   0.2884   0.3870
   0.0080  17.1768   0.3247   0.2881   0.3872
   0.0081  17.1811   0.3247   0.2879   0.3874
   0.0081  17.1779   0.3248   0.2876   0.3876
   0.0081  17.1839   0.3249   0.2874   0.3878
   0.0081  17.1863   0.3249   0.2871   0.3879
   0.0081  17.1873   0.3250   0.2869   0.3881
   0.0081  17.1970   0.3250   0.2867   0.3883
   0.0081  17.2126   0.3251   0.2864   0.3885
   0.0081  17.2204   0.3251   0.2862   0.3887
   0.0082  17.2306   0.3252   0.2859   0.3889
   0.0082  17.2463   0.3252   0.2857   0.3891
   0.0082  17.2541   0.3253   0.2854   0.3893
   0.0082  17.2614   0.3253   0.2852   0.3895
   0.0082  17.2631   0.3254   0.2849   0.3897
   0.0082  17.2686   0.3254   0.2847   0.3899
   0.0082  17.2830   0.3255   0.2845   0.3901
   0.0082  17.2873   0.3255   0.2842   0.3903
   0.0083  17.2956   0.3256   0.2840   0.3904
   0.0083  17.3011   0.3256   0.2837   0.3906
   0.0083  17.3107   0.3257   0.2835   0.3908
   0.0083  17.3154   0.3257   0.2833   0.3910
   0.0083  17.3213   0.3258   0.2830   0.3912
   0.0083  17.3248   0.3258   0.2828   0.3914
   0.0083  17.3309   0.3259   0.2826   0.3916
   0.0084  17.3368   0.3259   0.2823   0.3917
   0.0084  17.3410   0.3260   0.2821   0.3919
   0.0084  17.3516   0.3260   0.2819   0.3921
   0.0084  17.3673   0.3261   0.2816   0.3923
   0.0084  17.3703   0.3261   0.2814   0.3925
   0.0084  17.3754   0.3262   0.2812   0.3926
   0.0084  17.3777   0.3262   0.2809   0.3928
   0.0084  17.3837   0.3263   0.2807   0.3930
   0.0085  17.3852   0.3263   0.2805   0.3932
   0.0085  17.3916   0.3264   0.2802   0.3934
   0.0085  17.4027   0.3264   0.2800   0.3935
   0.0085  17.4098   0.3265   0.2798   0.3937
   0.0085  17.4125   0.3265   0.2796   0.3939
   0.0085  17.4149   0.3266   0.2793   0.3941
   0.0085  17.4170   0.3266   0.2791   0.3942
