TEXTURE AT STRAIN =    0.2000
   1.033   1.230   0.785  <-- length of average ellipsoid axes for phase
   89.98   91.07   89.71  <-- Euler angles of average ellipsoid axes for phase
B      3888
   29.16    9.71  -24.77   0.0000915
   34.43   10.38  -27.43   0.0000765
   48.61   10.75  -22.93   0.0000488
   51.29    7.75    3.35   0.0000736
   46.28    6.73   11.24   0.0000883
   37.88    6.76   21.67   0.0000953
   18.64   17.64  -13.11   0.0002564
   22.12   18.32  -13.82   0.0002014
   29.85   18.28   -7.33   0.0001241
   29.00   15.04   26.03   0.0001777
   24.92   14.09   33.50   0.0002211
   22.24   14.00   37.84   0.0002523
   14.84   26.98   -7.74   0.0002904
   17.76   27.95   -7.42   0.0002377
   22.80   27.82   -0.79   0.0001385
   22.49   24.39   32.04   0.0001799
   18.76   23.13   40.56   0.0002568
   17.23   22.87   43.80   0.0002666
   13.41   36.98   -4.33   0.0002152
   16.44   38.38   -3.20   0.0001448
   20.60   38.19    4.16   0.0000839
   21.20   34.72   30.85   0.0000948
   16.81   32.77   43.33   0.0001570
   15.46   32.29   46.67   0.0001872
   13.26   47.80   -1.44   0.0000985
   16.71   49.38    0.63   0.0000564
   20.86   48.93   10.31   0.0000282
   21.73   45.94   26.36   0.0000276
   16.99   42.94   43.37   0.0000582
   15.09   42.03   48.27   0.0000801
   13.96   59.14    1.19   0.0000306
   17.89   60.40    5.20   0.0000159
   21.01   59.10   15.31   0.0000089
   21.55   56.42   25.72   0.0000083
   19.02   53.51   38.97   0.0000129
   15.56   51.91   49.24   0.0000239
   14.15   69.32    2.63   0.0000094
   18.27   70.49    9.00   0.0000053
   20.56   68.67   18.21   0.0000031
   21.04   65.93   28.21   0.0000028
   19.51   63.27   38.92   0.0000037
   16.23   61.55   50.17   0.0000064
   13.72   77.71    3.34   0.0000028
   18.14   79.95   11.49   0.0000026
   20.40   77.99   20.90   0.0000013
   20.90   75.17   30.80   0.0000014
   19.54   72.46   41.10   0.0000016
   16.59   70.74   51.65   0.0000018
   13.51   85.29    4.24   0.0000036
   18.12   89.21   13.86   0.0000021
   20.48   87.10   23.58   0.0000013
   21.01   84.19   33.51   0.0000012
   19.73   81.45   43.52   0.0000012
   16.89   79.75   53.58   0.0000011
   40.17   10.87  -33.20   0.0000794
   53.01   11.47  -27.61   0.0000514
   56.94    8.58   -2.27   0.0000756
   53.42    7.51    4.17   0.0000946
   46.24    7.43   13.36   0.0001012
   35.65   10.17   28.71   0.0000948
   29.53   18.79  -21.30   0.0002404
   36.35   19.08  -14.84   0.0001475
   37.09   16.06   17.99   0.0001988
   33.88   14.98   24.80   0.0002549
   31.80   14.83   28.56   0.0002766
   26.76   18.05   38.77   0.0002850
   25.17   28.16  -14.97   0.0002958
   29.40   28.41   -9.03   0.0002032
   30.59   25.52   23.73   0.0002254
   27.39   24.10   32.51   0.0003166
   26.31   23.80   35.39   0.0003568
   23.09   27.03   43.93   0.0003609
   23.26   38.20  -10.38   0.0002376
   26.57   38.46   -4.37   0.0001474
   28.66   35.96   22.82   0.0001419
   24.94   33.87   36.07   0.0002299
   23.94   33.32   39.36   0.0002540
   21.79   34.91   45.21   0.0003181
   22.54   48.72   -6.22   0.0001223
   25.77   49.01    0.82   0.0000700
   28.22   47.23   18.76   0.0000535
   24.84   44.31   35.89   0.0000946
   23.00   43.20   42.12   0.0001239
   21.76   43.34   45.93   0.0001573
   22.55   59.42   -2.18   0.0000460
   25.96   59.60    6.25   0.0000251
   27.75   58.00   17.58   0.0000187
   26.59   55.37   30.47   0.0000240
   23.12   53.31   43.86   0.0000432
   21.82   52.97   48.17   0.0000558
   22.86   69.83    1.37   0.0000158
   25.68   69.52    9.65   0.0000100
   27.07   67.76   19.63   0.0000071
   26.84   65.49   30.20   0.0000073
   24.64   63.45   42.22   0.0000111
   22.28   62.65   50.55   0.0000159
   22.51   79.29    3.37   0.0000041
   25.26   79.06   11.82   0.0000045
   26.77   77.32   21.65   0.0000028
   26.84   75.03   31.97   0.0000028
   25.43   73.00   42.46   0.0000040
   22.98   71.98   52.69   0.0000027
   21.68   86.79    4.65   0.0000041
   25.00   88.45   13.78   0.0000031
   26.77   86.73   23.73   0.0000022
   27.12   84.39   33.92   0.0000020
   26.00   82.24   44.12   0.0000019
   23.76   80.98   54.19   0.0000019
   57.41   12.04  -32.14   0.0000542
   62.22    9.29   -7.54   0.0000793
   59.76    8.20   -2.13   0.0000978
   53.36    8.04    6.29   0.0001078
   41.84   10.49   22.46   0.0001014
   45.71   11.24   21.19   0.0000843
   42.53   19.53  -21.72   0.0001870
   44.25   16.84   10.86   0.0002377
   41.74   15.72   17.16   0.0002954
   40.02   15.55   20.60   0.0003244
   34.42   18.16   30.92   0.0003251
   36.56   18.94   31.46   0.0002853
   35.68   28.35  -16.76   0.0002882
   37.62   26.20   16.58   0.0003296
   34.95   24.78   25.43   0.0004286
   34.14   24.51   28.16   0.0004671
   31.19   26.41   35.17   0.0005274
   32.25   27.77   37.49   0.0004177
   32.29   37.67  -12.78   0.0003014
   34.95   36.39   15.77   0.0002438
   31.95   34.49   29.72   0.0003767
   31.15   34.00   33.18   0.0004173
   30.22   34.29   36.50   0.0004545
   29.86   37.05   42.16   0.0004202
   30.40   47.36   -8.87   0.0002037
   32.85   47.09    9.27   0.0001352
   31.19   44.81   30.01   0.0001932
   29.54   43.85   37.07   0.0002443
   29.06   43.74   40.01   0.0002648
   28.40   46.64   46.45   0.0002736
   29.22   57.25   -5.12   0.0001038
   31.58   57.56    6.83   0.0000643
   31.83   55.64   25.97   0.0000681
   29.01   54.03   39.77   0.0001079
   28.37   53.62   43.63   0.0001187
   27.53   56.33   50.53   0.0001328
   28.51   67.28   -1.23   0.0000472
   31.04   67.58    9.28   0.0000306
   32.28   66.47   22.34   0.0000229
   30.29   64.53   37.31   0.0000329
   28.28   63.68   46.96   0.0000491
   27.49   63.98   51.42   0.0000478
   28.26   77.29    2.95   0.0000169
   30.59   77.39   11.22   0.0000163
   32.01   76.40   22.76   0.0000117
   31.79   74.90   33.94   0.0000138
   29.25   73.66   48.09   0.0000200
   27.97   73.34   54.36   0.0000153
   28.04   86.53    6.35   0.0000541
   30.16   87.08   12.67   0.0000104
   31.92   86.15   23.72   0.0000059
   32.23   84.64   34.53   0.0000067
   31.26   83.29   45.39   0.0000080
   28.82   82.82   57.22   0.0000048
   67.37    9.88  -12.70   0.0000830
   65.74    8.79   -8.08   0.0001023
   59.75    8.58   -0.03   0.0001130
   47.91   10.70   16.28   0.0001082
   51.22   11.48   15.57   0.0000909
   61.93   12.47   23.39   0.0000588
   51.05   17.37    4.09   0.0002964
   49.11   16.27    9.94   0.0003579
   47.58   16.12   13.25   0.0003848
   42.15   18.05   22.85   0.0003871
   43.67   18.85   24.03   0.0003367
   48.82   19.69   31.63   0.0002338
   44.28   26.39    9.99   0.0004593
   42.12   25.13   18.59   0.0006370
   41.49   24.95   21.27   0.0006499
   39.77   25.73   25.83   0.0006943
   39.70   26.98   29.35   0.0006529
   42.29   27.80   35.43   0.0004447
   40.79   35.92    8.22   0.0004892
   38.62   34.52   23.53   0.0006392
   38.08   34.26   27.03   0.0006949
   37.79   34.38   29.59   0.0007283
   37.36   35.27   33.37   0.0007161
   38.63   36.13   38.48   0.0005987
   37.49   45.38   -1.36   0.0003798
   37.04   44.37   24.99   0.0004196
   36.03   43.95   31.65   0.0004762
   35.98   43.96   34.37   0.0004883
   35.99   44.11   37.10   0.0004997
   36.29   44.75   41.77   0.0004920
   35.50   54.66   -5.96   0.0002254
   36.34   54.50   20.48   0.0002005
   35.02   54.02   34.63   0.0002783
   34.87   53.98   38.90   0.0002814
   34.96   54.00   41.89   0.0002795
   35.05   54.04   45.52   0.0002839
   34.53   64.29   -4.43   0.0001322
   35.04   64.80    9.41   0.0001393
   35.18   64.30   33.33   0.0001366
   34.35   64.28   42.90   0.0001392
   34.39   64.27   46.81   0.0001388
   34.49   64.24   50.34   0.0001268
   34.27   74.60   -0.22   0.0000772
   34.38   74.77    6.57   0.0000896
   34.96   74.90   23.72   0.0000947
   34.66   74.52   43.18   0.0001070
   34.18   74.66   51.52   0.0000938
   34.22   74.63   55.61   0.0000723
   34.25   84.97    4.90   0.0000526
   34.31   85.07    9.62   0.0000642
   34.67   85.24   17.55   0.0000570
   35.22   84.94   36.45   0.0000643
   34.60   84.79   53.29   0.0000630
   34.25   84.96   60.68   0.0000449
   71.56    9.29  -13.92   0.0001064
   65.69    9.04   -5.90   0.0001191
   53.98   10.82   10.07   0.0001136
   56.79   11.63    9.88   0.0000969
   66.62   12.79   18.95   0.0000640
   72.55   10.37   42.09   0.0000897
   56.34   16.65    2.76   0.0004406
   54.89   16.52    6.08   0.0004598
   50.15   17.84   14.42   0.0004636
   51.08   18.62   16.23   0.0004072
   55.44   19.66   25.07   0.0002814
   57.83   17.68   57.33   0.0003664
   49.42   25.21   11.43   0.0008453
   48.97   25.14   14.06   0.0009331
   48.31   25.42   16.93   0.0009258
   47.97   26.07   20.28   0.0008937
   49.56   27.00   27.41   0.0007115
   51.06   26.17   63.44   0.0006894
   46.13   34.33   16.04   0.0010301
   46.01   34.30   19.35   0.0010449
   46.12   34.35   21.52   0.0010651
   46.27   34.38   23.87   0.0010872
   46.44   34.64   29.36   0.0009705
   47.35   34.96   60.11   0.0008960
   45.44   44.19   15.68   0.0006204
   45.20   44.16   22.36   0.0005829
   45.34   44.22   25.37   0.0005857
   45.52   44.25   28.18   0.0005958
   45.56   44.16   32.66   0.0005975
   45.28   44.21   49.48   0.0006269
   45.03   54.34    7.61   0.0002478
   44.84   54.28   23.19   0.0002441
   44.78   54.32   29.24   0.0002490
   44.95   54.35   32.93   0.0002573
   45.09   54.30   37.13   0.0002476
   44.86   54.26   45.43   0.0002486
   44.46   64.59   -0.97   0.0001035
   44.72   64.54   18.86   0.0001139
   44.50   64.56   31.23   0.0001170
   44.51   64.61   37.82   0.0001172
   44.66   64.58   42.40   0.0001095
   44.70   64.49   48.21   0.0001005
   44.45   74.77   -0.12   0.0000640
   44.30   74.92   10.47   0.0000757
   44.47   74.82   27.58   0.0000838
   44.36   74.85   40.05   0.0000912
   44.35   74.94   47.98   0.0000797
   44.45   74.86   53.33   0.0000609
   44.35   85.15    4.84   0.0000397
   44.33   85.06   11.11   0.0000438
   44.27   85.17   20.51   0.0000453
   44.35   85.14   35.80   0.0000460
   44.29   85.08   49.87   0.0000442
   44.30   85.24   59.09   0.0000358
   71.33    9.40  -11.45   0.0001215
   60.09   10.86    3.79   0.0001184
   62.44   11.70    4.08   0.0001021
   71.51   13.01   14.51   0.0000685
   77.83   10.76   36.76   0.0000963
   77.39    9.70   40.22   0.0001141
   62.22   16.79   -1.20   0.0005504
   58.46   17.62    5.63   0.0005414
   58.89   18.34    7.99   0.0004899
   62.49   19.52   18.68   0.0003407
   64.82   17.81   50.36   0.0004304
   63.69   16.88   55.36   0.0005310
   57.15   25.17    5.78   0.0011323
   57.08   25.25    7.83   0.0012241
   57.05   25.43   10.49   0.0011758
   57.68   26.26   19.43   0.0009579
   58.44   25.78   56.31   0.0010508
   57.33   25.17   63.40   0.0011317
   55.96   34.66    8.81   0.0011514
   56.08   34.73   11.26   0.0011231
   56.22   34.75   13.99   0.0011386
   56.11   34.64   20.44   0.0011472
   56.22   34.74   51.53   0.0011263
   55.94   34.65   65.32   0.0011510
   55.43   44.58   11.03   0.0006241
   55.53   44.65   14.67   0.0006001
   55.68   44.70   18.14   0.0006006
   55.70   44.61   23.80   0.0005957
   55.50   44.65   41.52   0.0005967
   55.62   44.64   63.66   0.0006244
   54.77   54.69   10.95   0.0002189
   54.70   54.74   18.39   0.0002191
   54.91   54.72   22.92   0.0002260
   55.04   54.61   28.30   0.0002227
   54.70   54.53   38.01   0.0002083
   54.89   54.71   57.26   0.0002143
   53.82   64.95    6.77   0.0000798
   53.89   64.96   18.86   0.0000860
   53.80   65.22   27.74   0.0000907
   54.03   64.87   33.59   0.0000888
   53.97   64.53   40.74   0.0000772
   53.57   64.68   51.40   0.0000720
   53.07   75.10    2.75   0.0000527
   53.17   75.50   14.36   0.0000655
   53.57   75.32   26.93   0.0000734
   53.56   75.39   37.02   0.0000779
   53.50   75.05   45.30   0.0000643
   53.27   74.82   53.00   0.0000495
   53.18   85.33    5.08   0.0000175
   53.26   85.46   13.42   0.0000195
   53.37   85.68   23.24   0.0000222
   53.63   85.35   35.06   0.0000226
   53.33   84.96   46.86   0.0000210
   53.21   85.20   56.89   0.0000169
   66.26   10.84   -2.56   0.0001207
   68.19   11.70   -1.81   0.0001054
   76.57   13.16   10.06   0.0000719
   83.25   11.07   31.28   0.0001013
   83.27   10.03   34.25   0.0001214
   76.74    9.68   43.23   0.0001298
   66.97   17.43   -3.37   0.0006272
   67.04   18.08   -0.59   0.0005613
   69.96   19.33   12.63   0.0004073
   72.14   17.83   43.00   0.0005029
   71.30   17.01   47.59   0.0005951
   69.77   16.94   51.19   0.0006424
   66.39   25.29   -1.96   0.0013371
   66.50   25.31    0.64   0.0014407
   66.53   25.78   12.05   0.0012163
   66.69   25.47   48.17   0.0012933
   66.31   25.22   53.90   0.0014431
   66.33   25.24   56.09   0.0013473
   65.96   35.11    0.65   0.0012396
   66.08   35.13    3.97   0.0011978
   65.93   35.02   12.40   0.0012064
   66.08   35.13   43.19   0.0012126
   65.87   35.04   54.22   0.0012089
   65.90   35.05   57.87   0.0012342
   65.37   44.96    3.75   0.0006635
   65.49   44.97    7.96   0.0006289
   65.42   44.84   15.44   0.0006168
   65.32   44.95   34.94   0.0006085
   65.31   44.94   52.50   0.0006257
   65.24   44.91   59.73   0.0006589
   63.41   54.94    8.12   0.0002137
   63.93   54.54   12.93   0.0002165
   64.03   54.13   19.73   0.0002139
   63.40   54.18   31.02   0.0001463
   63.77   54.52   48.79   0.0001999
   63.55   54.70   60.19   0.0002090
   61.91   65.40    7.64   0.0000758
   62.06   65.81   16.65   0.0000847
   62.70   64.95   24.58   0.0000863
   62.24   63.80   33.15   0.0000778
   61.66   64.24   44.31   0.0000688
   61.73   64.91   56.74   0.0000677
   60.90   75.59    5.80   0.0000614
   61.25   76.19   15.71   0.0000293
   61.91   76.41   25.48   0.0000864
   62.19   74.59   35.77   0.0000848
   61.20   74.25   45.65   0.0000702
   60.85   74.87   55.70   0.0000539
   60.87   85.54    5.23   0.0000338
   61.20   86.16   15.00   0.0000408
   61.88   86.42   24.87   0.0000416
   62.26   84.88   35.24   0.0000424
   61.32   84.32   45.48   0.0000394
   60.89   84.85   55.42   0.0000286
   73.99   11.66   -7.76   0.0001055
   81.78   13.26    5.63   0.0000736
   88.81   11.31   25.63   0.0001055
   89.25   10.30   28.15   0.0001255
   81.96    9.86   38.14   0.0001367
   72.45   10.78   51.07   0.0001278
   75.42   17.89   -9.36   0.0006236
   77.78   19.18    6.92   0.0004569
   79.85   17.81   35.19   0.0005821
   79.21   17.09   39.42   0.0006557
   77.65   17.01   43.11   0.0006933
   75.57   17.29   47.54   0.0007102
   76.01   25.49   -9.20   0.0014159
   75.85   25.61    6.03   0.0014522
   75.85   25.49   38.82   0.0014567
   75.85   25.44   43.56   0.0014591
   75.87   25.46   45.78   0.0015313
   75.90   25.49   47.86   0.0014357
   75.75   35.41   -6.02   0.0013264
   75.58   35.33    5.69   0.0012724
   75.69   35.40   34.74   0.0012902
   75.61   35.35   43.27   0.0013164
   75.63   35.36   46.87   0.0013126
   75.65   35.41   49.94   0.0013271
   75.12   44.74   -2.19   0.0006248
   74.72   44.62    7.59   0.0005786
   75.07   44.76   29.10   0.0006552
   74.66   44.83   42.14   0.0005756
   74.75   44.83   48.49   0.0006900
   74.96   44.80   52.67   0.0006328
   73.67   53.53    1.98   0.0001461
   73.16   53.25   11.00   0.0001419
   72.53   53.59   24.48   0.0001362
   73.10   53.84   39.92   0.0001319
   72.39   54.32   49.87   0.0001347
   72.59   54.45   57.06   0.0001411
   70.67   65.43    6.47   0.0000344
   71.99   63.31   14.91   0.0000985
   71.02   62.74   25.07   0.0000357
   70.36   63.41   36.57   0.0000303
   70.09   64.22   47.54   0.0000284
   70.05   64.98   57.45   0.0000291
   69.11   75.77    6.39   0.0000198
   70.05   76.28   15.98   0.0000352
   71.11   73.64   26.30   0.0000395
   69.77   73.11   36.68   0.0000334
   69.06   73.86   46.82   0.0000222
   68.85   74.83   56.71   0.0000122
   68.69   85.73    5.35   0.0000408
   69.18   86.65   15.05   0.0000057
   70.24   87.08   24.87   0.0000508
   70.78   84.25   35.57   0.0000488
   69.29   83.84   45.84   0.0000459
   68.71   84.70   55.65   0.0000318
   87.07   13.31    1.20   0.0000729
   94.48   11.50   19.84   0.0001069
   95.32   10.51   21.93   0.0001298
   87.04    9.96   33.21   0.0001363
   78.63   10.67   44.71   0.0001317
   79.80   11.58   46.29   0.0001102
   85.82   19.10    1.41   0.0004921
   87.90   17.81   26.95   0.0006283
   87.42   17.15   30.86   0.0007217
   85.81   17.04   34.65   0.0007214
   84.14   17.21   38.52   0.0007274
   83.84   17.79   41.87   0.0006777
   85.28   25.65    0.99   0.0014660
   85.23   25.60   29.07   0.0015799
   85.30   25.60   33.22   0.0015487
   85.31   25.60   35.46   0.0015453
   85.32   25.62   37.64   0.0016146
   85.42   25.61   40.99   0.0015026
   85.19   35.52    0.90   0.0013958
   85.18   35.54   25.61   0.0013619
   85.21   35.53   32.39   0.0014074
   85.21   35.53   35.87   0.0014420
   85.21   35.56   39.14   0.0014047
   85.30   35.55   44.09   0.0014050
   84.50   44.45    1.21   0.0006242
   85.10   44.39   21.72   0.0005945
   84.50   44.57   31.49   0.0005976
   84.81   44.53   36.53   0.0006192
   85.04   44.52   40.91   0.0006216
   85.12   44.46   47.66   0.0006288
   83.28   52.67    2.25   0.0001462
   84.61   52.75   18.77   0.0001432
   83.45   53.12   29.56   0.0001370
   82.96   53.55   38.38   0.0001396
   84.75   53.12   42.77   0.0001427
   84.41   52.71   51.13   0.0001468
   82.42   61.92    4.75   0.0000419
   81.68   62.23   16.11   0.0000422
   81.09   62.77   27.24   0.0000378
   80.75   63.39   37.45   0.0000326
   81.50   63.80   46.46   0.0000915
   82.98   63.02   55.25   0.0000920
   80.42   74.93    6.16   0.0000796
   81.36   72.64   16.25   0.0000386
   80.20   72.35   26.70   0.0000364
   79.36   72.96   36.97   0.0000299
   78.96   73.81   46.91   0.0000217
   79.18   74.68   56.61   0.0000147
   78.22   85.77    5.42   0.0000349
   78.75   86.69   15.12   0.0000462
   79.91   87.10   24.94   0.0000431
   80.67   84.72   35.49   0.0000390
   79.06   83.93   45.86   0.0000359
   78.30   84.74   55.71   0.0000266
  100.23   11.64   13.94   0.0001047
  101.47   10.68   15.62   0.0001296
   92.08    9.96   28.32   0.0001388
   84.76   10.52   38.42   0.0001299
   85.57   11.46   40.41   0.0001113
   92.38   13.32   56.79   0.0000754
   96.20   17.86   18.38   0.0006504
   95.86   17.22   22.00   0.0007351
   94.06   17.05   26.06   0.0007617
   92.56   17.16   29.68   0.0007210
   92.14   17.77   33.31   0.0006539
   93.92   19.12   56.00   0.0005166
   94.58   25.62   19.32   0.0015104
   94.68   25.62   22.95   0.0016631
   94.69   25.61   25.15   0.0016397
   94.70   25.61   27.37   0.0016048
   94.78   25.61   31.17   0.0016488
   94.69   25.67   56.21   0.0015339
   94.67   35.55   16.10   0.0014721
   94.75   35.57   21.54   0.0014736
   94.75   35.55   24.87   0.0015273
   94.74   35.54   28.26   0.0015122
   94.81   35.55   34.33   0.0014467
   94.76   35.54   56.60   0.0014606
   95.03   44.42   12.18   0.0006822
   94.95   44.51   19.70   0.0006835
   95.18   44.56   24.20   0.0006831
   95.58   44.61   28.84   0.0006600
   95.09   44.46   37.95   0.0006487
   95.45   44.48   56.73   0.0006701
   95.91   52.60    8.62   0.0001654
   95.41   53.06   17.51   0.0001649
   97.26   53.63   22.01   0.0001605
   97.00   53.28   30.38   0.0001559
   95.85   52.89   40.78   0.0001562
   96.88   52.64   56.73   0.0001592
   96.97   62.60    4.87   0.0001031
   98.58   63.77   13.47   0.0000406
   99.43   63.34   22.55   0.0000363
   99.08   62.68   32.52   0.0000360
   98.43   62.13   43.43   0.0000379
   97.70   61.75   54.83   0.0000392
  100.62   74.64    3.40   0.0000158
  101.00   73.77   13.06   0.0000266
  100.68   72.87   22.95   0.0000271
   99.86   72.20   33.13   0.0000253
   98.69   72.19   43.60   0.0000706
   99.04   74.44   53.86   0.0000630
  101.60   84.72    4.28   0.0000174
  100.95   83.86   14.11   0.0000227
   99.45   84.04   24.32   0.0000219
   99.64   86.84   35.01   0.0000192
  100.95   86.64   44.88   0.0000170
  101.58   85.76   54.58   0.0000140
  107.65   10.81    9.24   0.0001243
   97.20    9.87   23.32   0.0001377
   90.80   10.32   32.24   0.0001301
   91.24   11.29   34.64   0.0001075
   97.66   13.29   52.39   0.0000749
  106.01   11.75   68.01   0.0001069
  104.43   17.32   12.96   0.0007203
  102.19   17.04   17.62   0.0007348
  100.75   17.12   21.15   0.0007250
  100.17   17.81   25.11   0.0006043
  101.93   19.23   50.59   0.0004732
  104.60   17.99   69.62   0.0006590
  104.09   25.52   12.72   0.0015696
  104.12   25.49   14.82   0.0017269
  104.14   25.47   17.03   0.0016756
  104.16   25.51   21.34   0.0015982
  104.11   25.67   51.31   0.0015784
  103.98   25.51   69.56   0.0015627
  104.30   35.45   10.72   0.0015793
  104.32   35.40   13.85   0.0015684
  104.34   35.38   17.35   0.0015704
  104.30   35.43   24.87   0.0015096
  104.37   35.38   52.15   0.0014605
  104.21   35.44   66.35   0.0015153
  105.00   44.83    7.98   0.0008217
  105.23   44.88   12.21   0.0007981
  105.43   44.89   18.05   0.0007504
  104.90   44.78   29.52   0.0007122
  105.34   44.63   51.28   0.0007059
  104.86   44.74   62.33   0.0007750
  107.42   54.50    3.46   0.0002041
  107.78   54.44   10.44   0.0001971
  107.17   53.98   20.16   0.0001914
  107.47   53.64   34.23   0.0001768
  106.96   53.19   48.43   0.0001827
  106.33   53.45   58.11   0.0002004
  109.95   64.98    2.66   0.0000448
  109.96   64.21   12.38   0.0000427
  109.67   63.40   22.97   0.0000417
  109.05   62.68   34.28   0.0000437
  108.02   62.82   44.91   0.0000472
  109.10   65.30   53.54   0.0000455
  111.14   74.82    3.24   0.0000161
  110.98   73.82   13.05   0.0000257
  110.33   73.00   23.12   0.0000272
  109.05   73.01   33.50   0.0000283
  109.62   76.08   44.03   0.0000205
  110.78   75.76   53.60   0.0000140
  111.31   84.69    4.33   0.0000320
  110.81   83.76   14.12   0.0000404
  109.46   83.67   24.25   0.0000383
  109.46   86.89   35.09   0.0000331
  110.67   86.64   44.94   0.0000299
  111.25   85.74   54.64   0.0000254
  102.47    9.69   18.14   0.0001290
   96.73   10.07   26.20   0.0001246
   96.77   11.08   29.04   0.0001056
  102.82   13.22   48.03   0.0000709
  111.76   11.81   62.09   0.0001053
  113.83   10.89   62.87   0.0001248
  110.03   16.98    9.58   0.0006859
  108.61   17.06   13.03   0.0006581
  107.82   17.86   17.37   0.0005654
  109.69   19.43   45.08   0.0004137
  112.92   18.22   60.87   0.0005855
  113.03   17.49   63.85   0.0006982
  113.63   25.30    4.53   0.0015966
  113.63   25.27    6.71   0.0017252
  113.32   25.50   11.90   0.0015382
  113.39   25.90   45.94   0.0013492
  113.47   25.36   59.74   0.0016540
  113.57   25.34   62.54   0.0016014
  114.04   35.12    2.83   0.0016447
  114.06   35.09    6.37   0.0015679
  113.89   35.18   15.85   0.0015307
  114.06   35.08   46.46   0.0014873
  113.86   35.18   56.42   0.0014965
  113.97   35.18   59.97   0.0015871
  114.69   44.98    0.96   0.0010037
  114.68   45.00    7.81   0.0009262
  114.58   45.02   23.44   0.0008498
  114.58   44.87   43.96   0.0008241
  114.43   45.01   52.36   0.0008827
  114.55   45.02   56.87   0.0009750
  116.48   54.79    0.16   0.0002685
  116.21   54.58   10.94   0.0002517
  116.60   54.24   27.92   0.0002310
  116.00   54.11   39.89   0.0002354
  115.97   54.52   47.39   0.0002533
  116.54   55.01   52.39   0.0002709
  118.26   64.96    3.27   0.0000692
  118.32   64.29   15.09   0.0000650
  117.81   63.77   26.24   0.0000671
  117.16   64.42   35.53   0.0001305
  117.79   65.80   43.68   0.0000739
  118.07   65.47   52.72   0.0000724
  119.11   74.89    4.05   0.0000359
  118.83   74.23   14.02   0.0000495
  118.00   74.11   24.02   0.0000555
  117.80   76.13   34.51   0.0000516
  118.59   76.18   44.29   0.0000394
  119.01   75.61   54.11   0.0000311
  119.15   84.83    4.54   0.0000205
  118.79   84.21   14.46   0.0000322
  117.90   84.27   24.59   0.0000743
  117.88   86.24   35.09   0.0000670
  118.69   86.17   44.95   0.0000592
  119.11   85.56   54.72   0.0000496
  102.54    9.75   20.31   0.0001148
  102.14   10.79   23.62   0.0000990
  107.83   13.09   43.69   0.0000687
  117.44   11.83   56.25   0.0000996
  119.96   10.93   56.54   0.0001217
  107.90    9.42   72.78   0.0001289
  116.14   16.95    5.34   0.0005772
  115.07   17.87   10.13   0.0004778
  117.08   19.67   39.38   0.0003686
  121.00   18.52   52.32   0.0005021
  121.53   17.71   54.80   0.0006009
  117.52   16.85   62.02   0.0006377
  122.51   25.25   -2.69   0.0013690
  121.51   25.83    3.81   0.0012647
  122.15   26.46   39.30   0.0011073
  122.87   25.54   49.89   0.0013664
  122.79   25.33   52.81   0.0015008
  122.69   25.25   54.94   0.0014365
  123.98   34.71   -4.74   0.0016037
  123.68   34.82    7.08   0.0014844
  123.86   34.71   38.95   0.0014653
  123.70   34.81   46.40   0.0015025
  123.84   34.80   49.33   0.0015554
  123.95   34.74   51.85   0.0016277
  124.29   44.72   -3.25   0.0009852
  124.35   44.74   16.94   0.0008768
  124.22   44.69   35.93   0.0008351
  124.20   44.78   42.22   0.0008775
  124.34   44.74   45.90   0.0009675
  124.44   44.68   49.63   0.0010245
  124.99   54.78    2.33   0.0003749
  125.23   54.61   21.22   0.0003410
  124.87   54.66   31.52   0.0003417
  124.96   54.78   37.34   0.0003643
  125.18   54.83   42.07   0.0003995
  125.13   54.77   49.50   0.0004120
  126.34   64.75    8.09   0.0001502
  125.98   64.55   18.77   0.0001495
  125.87   64.81   26.33   0.0001559
  126.05   65.21   32.52   0.0001589
  125.99   64.99   41.55   0.0001650
  126.08   65.01   53.43   0.0001583
  126.67   74.85    6.51   0.0001084
  126.49   74.89   14.42   0.0001348
  126.34   75.11   23.04   0.0001397
  126.27   75.17   33.31   0.0001264
  126.67   75.50   45.68   0.0001098
  126.79   75.14   56.92   0.0000978
  126.80   85.13    3.01   0.0000778
  126.70   84.80   13.16   0.0000987
  126.31   85.02   24.95   0.0000832
  126.42   85.50   36.59   0.0000738
  126.57   85.44   46.21   0.0000659
  126.75   85.37   54.39   0.0000557
  107.35   10.42   18.38   0.0000894
  112.64   12.88   39.38   0.0000637
  123.00   11.78   50.51   0.0000972
  126.03   10.91   50.29   0.0001142
  113.51    9.06   67.23   0.0001240
  108.28    9.35   74.53   0.0001124
  121.93   17.78    3.34   0.0003934
  123.99   19.86   33.42   0.0002987
  128.69   18.84   44.14   0.0004475
  129.81   17.99   45.98   0.0005065
  124.75   16.59   54.81   0.0005279
  123.38   16.74   58.05   0.0005113
  128.74   26.29   -2.98   0.0008133
  130.10   27.30   31.66   0.0008073
  131.88   26.29   40.05   0.0010769
  131.48   25.52   43.75   0.0011522
  130.76   25.24   46.76   0.0011982
  130.33   25.31   49.37   0.0010711
  132.40   35.07   -1.27   0.0011799
  133.39   34.85   30.30   0.0012379
  133.58   34.48   36.55   0.0014613
  133.71   34.45   39.09   0.0015479
  133.80   34.40   41.35   0.0014880
  133.70   34.42   44.63   0.0014579
  134.54   44.32    9.12   0.0009121
  134.33   44.25   27.28   0.0008453
  134.34   44.34   32.16   0.0008751
  134.51   44.31   35.13   0.0009585
  134.65   44.26   38.23   0.0009970
  134.45   44.28   44.78   0.0009812
  135.00   54.36   13.96   0.0003757
  134.75   54.40   22.82   0.0003637
  134.88   54.44   27.28   0.0003892
  135.03   54.42   31.15   0.0004250
  134.99   54.38   37.34   0.0004392
  134.80   54.43   52.17   0.0004179
  135.11   64.58   11.40   0.0001638
  135.15   64.66   17.45   0.0001708
  135.29   64.69   22.24   0.0001761
  135.28   64.63   29.26   0.0001793
  135.10   64.62   41.62   0.0001862
  135.34   64.67   60.62   0.0001738
  135.36   74.91    6.23   0.0001094
  135.45   74.99   11.77   0.0001360
  135.42   74.87   20.30   0.0001369
  135.34   74.89   33.17   0.0001213
  135.49   74.95   49.46   0.0001108
  135.36   74.83   59.65   0.0000992
  135.51   85.25    0.57   0.0000573
  135.52   85.08   10.32   0.0000700
  135.45   85.19   25.13   0.0000619
  135.53   85.17   39.48   0.0000534
  135.47   85.10   48.40   0.0000484
  135.46   85.19   54.54   0.0000436
  117.23   12.58   35.09   0.0000569
  128.46   11.65   44.90   0.0000907
  132.03   10.80   44.12   0.0001115
  119.37    8.61   61.43   0.0001152
  114.00    8.86   68.79   0.0001074
  112.43    9.96   73.30   0.0000862
  130.43   19.95   27.21   0.0002364
  135.95   19.11   36.42   0.0003628
  137.73   18.25   37.57   0.0004469
  131.94   16.19   47.74   0.0004324
  130.49   16.38   50.99   0.0004057
  128.53   17.52   56.86   0.0003306
  137.13   28.20   23.75   0.0004815
  139.97   27.29   31.01   0.0007668
  140.08   25.95   34.60   0.0008880
  138.10   25.06   39.66   0.0008284
  137.48   25.26   42.36   0.0007971
  135.27   26.60   51.07   0.0005425
  140.89   36.55   20.95   0.0007110
  142.41   35.58   26.86   0.0009369
  141.90   34.49   31.12   0.0010274
  141.57   34.38   33.82   0.0010133
  141.02   34.67   37.40   0.0008865
  138.73   36.17   51.74   0.0006147
  143.38   45.06   18.04   0.0006458
  143.77   44.25   23.26   0.0007191
  143.74   44.06   26.22   0.0007606
  143.67   44.06   29.06   0.0007676
  142.65   44.52   35.86   0.0006327
  142.07   45.63   60.35   0.0005082
  144.74   54.18   14.43   0.0003861
  144.81   54.09   18.34   0.0003995
  144.88   54.08   21.48   0.0004327
  144.73   54.12   25.90   0.0003814
  143.41   54.61   39.75   0.0003026
  144.22   54.85   65.38   0.0003084
  145.32   64.32    9.52   0.0001762
  145.41   64.35   13.19   0.0001865
  145.43   64.36   17.31   0.0001877
  144.61   64.37   27.21   0.0001869
  144.77   64.87   50.57   0.0001920
  145.27   64.39   64.11   0.0001837
  145.61   74.70    4.04   0.0001044
  145.65   74.72    8.30   0.0001232
  145.15   74.55   17.19   0.0001226
  144.95   74.94   36.99   0.0001146
  145.47   74.79   53.18   0.0001064
  145.56   74.66   59.84   0.0000976
  145.63   85.04   -1.18   0.0000306
  145.27   84.81    6.81   0.0000358
  144.80   85.02   24.62   0.0000336
  145.32   85.21   42.52   0.0000305
  145.57   85.08   49.95   0.0000281
  145.62   85.05   54.52   0.0000252
  133.85   11.41   39.38   0.0000819
  138.03   10.60   38.00   0.0001043
  125.63    8.06   55.23   0.0001128
  119.83    8.27   62.97   0.0000995
  117.46    9.39   68.29   0.0000816
  121.63   12.16   90.81   0.0000536
  142.85   19.24   29.10   0.0002955
  145.33   18.40   29.58   0.0003659
  139.35   15.62   40.52   0.0003741
  137.69   15.83   43.92   0.0003264
  135.07   17.04   50.48   0.0002539
  136.47   19.84   80.82   0.0001916
  147.16   28.18   22.92   0.0004701
  148.64   26.90   24.95   0.0006482
  145.28   24.63   32.92   0.0005914
  144.46   24.95   35.73   0.0005150
  141.48   26.57   45.51   0.0003629
  143.32   28.88   75.91   0.0003010
  149.57   37.55   18.08   0.0005135
  149.48   34.56   23.98   0.0006228
  148.29   34.16   27.85   0.0005759
  147.36   34.75   31.70   0.0004817
  144.09   36.97   46.57   0.0002767
  146.64   38.40   71.34   0.0003193
  151.07   47.20   13.61   0.0003515
  150.50   43.90   20.64   0.0003874
  149.89   44.05   23.90   0.0003558
  147.71   45.30   33.00   0.0002384
  145.85   47.88   51.19   0.0001473
  148.45   48.21   66.97   0.0002173
  151.98   56.96    9.25   0.0001689
  151.17   53.77   16.90   0.0001673
  150.26   54.31   21.65   0.0001456
  147.08   56.36   37.66   0.0000777
  147.13   58.11   50.76   0.0000692
  149.76   57.95   63.61   0.0001121
  152.35   64.52    7.96   0.0000734
  151.25   63.80   13.51   0.0000666
  148.69   64.89   25.60   0.0000391
  147.50   66.56   38.09   0.0000301
  148.19   67.84   49.03   0.0000356
  150.87   67.61   60.61   0.0000592
  151.82   73.40    5.51   0.0000330
  150.09   73.71   13.52   0.0000275
  148.11   74.93   26.39   0.0000185
  147.96   76.38   37.24   0.0000179
  149.11   77.42   47.97   0.0000216
  151.45   77.38   56.79   0.0000314
  151.12   82.86    2.56   0.0000081
  148.66   83.31   14.83   0.0000084
  147.82   84.65   25.57   0.0000057
  148.16   86.11   36.30   0.0000051
  149.93   87.00   47.24   0.0000082
  151.90   86.58   53.29   0.0000529
  144.12   10.28   31.82   0.0000953
  132.57    7.43   48.35   0.0001056
  126.00    7.59   56.85   0.0000961
  122.56    8.69   63.21   0.0000758
  125.89   11.60   86.50   0.0000504
  139.25   11.06   93.88   0.0000779
  152.82   18.33   21.83   0.0003085
  147.39   14.88   32.73   0.0003095
  145.35   15.09   36.47   0.0002806
  141.87   16.30   43.81   0.0002038
  142.32   19.43   74.19   0.0001457
  149.62   19.13   82.03   0.0002492
  156.40   27.62   16.46   0.0004201
  152.90   23.90   25.88   0.0004275
  151.75   24.28   28.93   0.0003656
  147.86   26.06   39.65   0.0002249
  149.00   29.08   68.17   0.0001942
  153.81   28.71   75.51   0.0003180
  158.08   37.24   12.71   0.0003871
  155.19   33.52   21.95   0.0003188
  153.85   34.28   26.08   0.0002623
  149.53   37.03   42.31   0.0001326
  151.34   39.48   61.96   0.0001330
  155.54   39.00   70.56   0.0002598
  158.29   44.71   12.95   0.0002258
  155.93   43.55   19.38   0.0001562
  152.95   45.21   29.71   0.0000916
  150.63   48.18   44.73   0.0000548
  152.10   50.01   55.81   0.0000623
  156.02   49.75   65.92   0.0001316
  157.82   53.64   11.54   0.0000783
  155.35   53.80   19.00   0.0000491
  152.60   55.80   31.79   0.0000290
  152.04   58.06   42.50   0.0000243
  153.22   59.91   52.35   0.0000284
  156.04   60.36   61.56   0.0000497
  157.43   62.93    9.02   0.0000268
  154.76   63.59   19.14   0.0000163
  153.06   65.52   29.99   0.0000110
  152.86   67.75   40.35   0.0000103
  154.14   69.51   50.03   0.0000143
  156.61   70.10   58.84   0.0000231
  156.89   71.99    7.28   0.0000113
  154.50   73.00   17.66   0.0000081
  153.17   75.03   28.09   0.0000067
  153.26   77.28   38.29   0.0000068
  154.74   79.00   48.03   0.0000092
  157.35   79.35   56.91   0.0000143
  156.24   80.99    5.73   0.0000052
  154.04   82.25   15.88   0.0000050
  152.97   84.39   26.10   0.0000039
  153.35   86.68   36.26   0.0000042
  155.10   88.37   46.17   0.0000064
  158.27   87.00   55.28   0.0000060
  140.69    6.73   40.27   0.0000957
  132.89    6.80   50.02   0.0000905
  127.97    7.87   57.83   0.0000735
  130.12   10.88   82.06   0.0000469
  144.84   10.55   88.24   0.0000750
  150.52    9.82   85.39   0.0000918
  156.75   14.02   23.63   0.0002721
  154.05   14.17   28.02   0.0002380
  149.54   15.29   36.25   0.0001789
  148.44   18.62   66.97   0.0001178
  156.72   18.67   74.76   0.0002029
  160.73   17.92   73.86   0.0002750
  161.73   22.94   17.70   0.0003011
  160.04   23.29   21.21   0.0002793
  155.27   24.96   32.32   0.0001677
  154.98   28.51   60.21   0.0001218
  160.69   28.58   68.15   0.0002392
  164.24   27.64   68.43   0.0003207
  163.33   32.47   14.97   0.0002110
  161.54   33.17   19.22   0.0001625
  156.20   35.90   35.65   0.0000786
  156.57   39.14   53.38   0.0000674
  161.51   39.37   63.24   0.0001387
  165.17   38.37   64.80   0.0002292
  163.57   42.36   13.39   0.0000891
  160.40   43.74   22.20   0.0000514
  157.03   46.78   37.24   0.0000278
  157.52   49.40   47.71   0.0000281
  160.93   50.52   57.71   0.0000504
  164.90   49.70   61.76   0.0001006
  163.42   52.20   11.95   0.0000287
  159.97   53.89   23.45   0.0000153
  158.26   56.50   34.54   0.0000109
  158.69   59.14   44.46   0.0000117
  160.96   60.87   53.38   0.0000179
  164.77   60.43   59.62   0.0000368
  163.42   61.61   10.28   0.0000107
  160.34   63.30   21.31   0.0000060
  158.90   65.95   31.85   0.0000044
  159.33   68.66   41.68   0.0000048
  161.47   70.53   50.76   0.0000081
  165.37   69.86   58.26   0.0000177
  163.37   70.76    8.38   0.0000052
  160.47   72.46   18.93   0.0000034
  159.14   75.15   29.17   0.0000028
  159.60   77.96   39.04   0.0000030
  161.78   79.95   48.40   0.0000051
  165.97   78.34   56.85   0.0000101
  163.20   79.80    6.36   0.0000028
  160.39   81.46   16.45   0.0000022
  159.11   84.18   26.48   0.0000017
  159.60   87.07   36.39   0.0000020
  161.89   89.20   46.10   0.0000032
  166.34   86.09   55.57   0.0000040
  141.22    5.95   41.75   0.0000840
  134.17    6.92   51.66   0.0000696
  134.58    9.98   77.30   0.0000458
  150.97    9.88   82.12   0.0000718
  157.65    9.20   78.29   0.0000905
  150.86    6.01   90.11   0.0000927
  164.89   13.21   17.45   0.0002203
  159.19   14.06   26.64   0.0001611
  155.97   17.32   58.12   0.0001075
  165.61   17.71   65.98   0.0001850
  170.80   16.93   64.09   0.0002476
  168.83   13.19   71.76   0.0002571
  170.75   22.20   11.11   0.0002231
  165.40   23.40   21.82   0.0001512
  163.45   26.93   50.09   0.0001014
  171.89   27.05   57.51   0.0002076
 -179.00   24.99   53.37   0.0003233
  173.85   22.00   66.17   0.0002731
  172.19   31.83    9.49   0.0001405
  166.32   33.78   24.47   0.0000659
  166.32   37.09   42.90   0.0000529
 -158.78   35.09   28.98   0.0001000
 -161.61   33.48   36.20   0.0001572
  175.64   31.39   63.80   0.0001888
  172.11   41.92   10.16   0.0000523
  167.39   44.42   26.32   0.0000228
 -156.88   49.47   12.76   0.0000184
 -156.78   46.40   24.33   0.0000268
 -160.52   43.77   35.25   0.0000553
  176.88   41.17   62.00   0.0000886
  174.10   52.45    9.99   0.0000187
 -159.77   61.39    6.46   0.0000090
 -156.88   59.50   14.95   0.0000069
 -157.24   56.49   25.13   0.0000092
 -160.42   53.81   36.34   0.0000178
  179.48   51.29   59.03   0.0000362
 -162.26   72.63   -0.06   0.0000061
 -159.18   71.42    8.63   0.0000037
 -157.58   68.88   17.89   0.0000031
 -158.13   65.82   27.96   0.0000040
 -161.00   63.27   38.85   0.0000079
 -167.44   67.59   51.78   0.0000170
 -162.38   82.16    2.15   0.0000037
 -159.54   80.66   11.29   0.0000025
 -158.21   77.97   20.83   0.0000022
 -158.79   74.93   30.84   0.0000025
 -161.45   72.51   41.34   0.0000049
 -166.56   78.18   53.24   0.0000085
 -162.74   91.27    4.33   0.0000023
 -159.94   89.64   13.93   0.0000017
 -158.68   86.90   23.71   0.0000016
 -159.25   83.91   33.66   0.0000016
 -161.74   81.65   43.76   0.0000029
 -166.53   86.80   54.56   0.0000032
  142.23    5.87   43.63   0.0000664
  139.85    8.86   71.67   0.0000440
  158.47    9.01   74.70   0.0000725
  166.56    8.39   69.50   0.0000875
  164.59    5.35   76.32   0.0000923
  152.47    5.07   90.55   0.0000827
  175.70   12.99   10.11   0.0001710
 -162.65   15.72   16.92   0.0001284
 -141.53   16.34   14.74   0.0001714
 -146.30   15.18   22.36   0.0002230
 -169.91   13.10   50.12   0.0002466
 -178.74   12.68   61.25   0.0002264
 -149.82   30.89  -20.10   0.0001348
 -142.30   30.60   -1.77   0.0000792
 -144.25   26.64   16.30   0.0001466
 -147.14   24.98   22.71   0.0002122
 -150.65   24.38   28.11   0.0002706
 -154.61   29.22   38.71   0.0002314
 -149.78   42.70  -13.92   0.0000664
 -144.62   42.01   -0.54   0.0000359
 -146.06   37.63   15.75   0.0000717
 -149.21   35.03   24.82   0.0001297
 -151.33   34.33   29.02   0.0001617
 -154.43   41.21   40.98   0.0001388
 -150.07   53.68   -7.00   0.0000256
 -147.10   52.11    2.60   0.0000179
 -147.01   48.87   13.69   0.0000240
 -150.23   45.43   26.33   0.0000510
 -152.48   44.31   31.40   0.0000739
 -154.71   52.57   44.56   0.0000602
 -151.48   63.26   -2.88   0.0000123
 -149.28   61.44    6.09   0.0000094
 -148.84   58.65   16.03   0.0000106
 -150.73   55.76   27.28   0.0000176
 -153.65   54.12   35.20   0.0000306
 -155.06   63.09   48.50   0.0000235
 -152.97   72.34   -0.11   0.0000072
 -150.94   70.59    9.07   0.0000056
 -150.39   67.98   18.94   0.0000056
 -151.69   65.33   29.45   0.0000080
 -154.55   63.59   39.38   0.0000159
 -156.01   72.38   51.35   0.0000139
 -154.26   81.25    2.17   0.0000055
 -152.22   79.64   11.65   0.0000044
 -151.52   77.20   21.56   0.0000044
 -152.46   74.68   31.83   0.0000056
 -154.92   72.94   42.16   0.0000106
 -157.17   80.93   53.33   0.0000113
 -155.34   90.11    4.11   0.0000041
 -153.23   88.67   13.90   0.0000031
 -152.34   86.38   23.93   0.0000033
 -152.97   83.97   34.10   0.0000034
 -155.06   82.24   44.27   0.0000055
 -158.28   88.60   54.90   0.0000052
  147.93    7.48   63.24   0.0000434
  170.76    7.84   62.62   0.0000731
 -178.73    7.31   55.09   0.0000884
 -175.92    4.98   56.66   0.0000888
  169.76    4.33   73.28   0.0000834
  155.27    4.77   90.59   0.0000659
 -129.61   21.81  -16.63   0.0000855
 -129.40   18.20    2.54   0.0001447
 -132.01   16.77    8.09   0.0001965
 -136.87   16.12   14.89   0.0002274
 -143.42   19.78   26.91   0.0002078
 -139.20   21.32   26.56   0.0001505
 -135.18   32.30  -12.15   0.0000766
 -135.56   28.16    7.64   0.0001505
 -137.64   26.28   13.66   0.0002167
 -139.40   25.77   17.25   0.0002478
 -145.23   30.72   30.08   0.0002333
 -141.77   32.08   31.72   0.0001417
 -138.77   42.89   -9.63   0.0000523
 -138.75   38.82    8.42   0.0000874
 -141.22   36.06   17.66   0.0001599
 -142.42   35.37   20.99   0.0001866
 -147.06   40.97   33.65   0.0001701
 -143.75   42.49   37.40   0.0001031
 -141.41   52.61   -5.21   0.0000310
 -140.68   49.74    7.05   0.0000375
 -143.38   46.18   20.49   0.0000776
 -144.64   45.08   24.64   0.0000994
 -148.50   50.85   37.22   0.0001008
 -145.36   52.47   42.89   0.0000577
 -143.90   61.61   -1.83   0.0000186
 -142.84   59.57    8.34   0.0000181
 -144.28   56.68   20.98   0.0000291
 -146.21   54.86   28.34   0.0000463
 -149.71   60.17   40.58   0.0000537
 -147.03   61.74   46.92   0.0000314
 -145.97   70.47    0.61   0.0000126
 -144.82   68.82   10.65   0.0000117
 -145.17   66.67   21.32   0.0000131
 -147.20   64.69   31.89   0.0000226
 -150.57   67.09   41.40   0.0000343
 -148.78   70.49   49.40   0.0000236
 -147.70   79.33    2.37   0.0000108
 -146.38   78.05   12.49   0.0000105
 -146.30   76.21   23.04   0.0000115
 -147.66   74.50   33.94   0.0000157
 -149.71   73.67   41.12   0.0000280
 -150.27   79.16   51.76   0.0000229
 -149.43   88.19    2.80   0.0000076
 -147.63   87.32   13.88   0.0000080
 -147.16   85.74   24.45   0.0000075
 -147.94   84.18   35.09   0.0000083
 -149.91   83.20   44.63   0.0000174
 -151.44   87.84   54.49   0.0000155
 -115.58    9.35  -10.44   0.0000703
 -126.34    7.57    3.19   0.0000873
 -149.45    5.41   29.77   0.0000824
 -161.88    4.33   44.85   0.0000839
 -172.34    4.19   58.13   0.0000704
 -173.54    5.73   84.60   0.0000477
 -121.52   19.48   -5.34   0.0001468
 -123.08   17.96   -0.72   0.0001906
 -126.19   17.42    4.23   0.0002214
 -135.05   21.00   18.91   0.0001984
 -131.80   22.33   19.30   0.0001426
 -123.13   23.13   35.29   0.0000849
 -128.48   29.01    0.76   0.0001671
 -129.87   27.15    6.31   0.0002557
 -131.16   26.67    9.48   0.0002811
 -137.74   30.68   22.59   0.0002586
 -135.17   31.98   24.40   0.0001896
 -129.37   32.81   39.06   0.0000987
 -132.77   38.78    3.46   0.0001453
 -134.42   36.43   11.57   0.0002252
 -135.21   35.87   14.57   0.0002598
 -139.89   39.59   25.85   0.0002560
 -137.97   40.92   28.73   0.0001792
 -133.83   42.14   40.76   0.0000974
 -135.80   48.48    4.36   0.0000909
 -137.67   45.88   15.76   0.0001475
 -138.38   45.14   19.34   0.0001706
 -141.54   47.74   28.34   0.0001896
 -140.48   49.25   32.16   0.0001459
 -137.26   50.77   43.30   0.0000795
 -138.32   57.95    4.40   0.0000499
 -139.99   55.54   18.73   0.0000766
 -140.90   54.56   23.89   0.0000968
 -141.83   54.71   28.03   0.0001142
 -142.60   57.36   35.14   0.0001022
 -140.22   58.88   44.89   0.0000578
 -140.96   67.24    0.49   0.0000327
 -141.57   65.34   19.90   0.0000437
 -142.81   64.27   28.13   0.0000562
 -143.29   64.13   32.03   0.0000662
 -144.04   65.80   38.16   0.0000779
 -142.99   66.62   44.51   0.0000573
 -143.45   76.09   -3.20   0.0000327
 -142.83   75.16   18.43   0.0000355
 -144.00   74.37   31.25   0.0000962
 -144.49   74.14   36.57   0.0001015
 -144.87   74.76   41.41   0.0001182
 -144.76   75.28   46.21   0.0001020
 -145.20   85.08   -3.94   0.0000576
 -144.16   85.40   10.16   0.0000661
 -144.46   84.56   31.30   0.0000651
 -145.20   84.44   40.67   0.0000617
 -145.43   84.62   45.75   0.0000793
 -145.47   84.91   50.21   0.0000725
 -107.50    9.59  -15.83   0.0000808
 -123.53    7.27    3.19   0.0000813
 -127.98    9.16   10.91   0.0000857
 -122.69   12.14    8.84   0.0000669
 -110.33   13.88   21.61   0.0000401
 -104.64   11.23   38.49   0.0000634
 -115.51   18.87   -8.17   0.0002046
 -118.09   18.33   -3.71   0.0002259
 -127.88   21.41   11.84   0.0002026
 -125.23   22.70   12.68   0.0001517
 -117.36   23.86   28.24   0.0000876
 -114.67   20.39   47.84   0.0001532
 -122.66   27.64   -0.56   0.0002934
 -123.74   27.21    2.48   0.0003481
 -130.20   30.15   14.79   0.0003180
 -128.42   31.35   16.88   0.0002400
 -123.50   32.58   31.00   0.0001443
 -121.82   29.31   54.45   0.0002146
 -127.78   36.28    5.50   0.0003499
 -128.36   35.93    8.39   0.0003706
 -131.85   37.81   16.81   0.0003860
 -131.15   38.99   20.09   0.0003093
 -128.21   40.46   31.39   0.0001800
 -126.79   38.00   58.74   0.0002513
 -131.59   45.06   10.35   0.0002774
 -131.95   44.80   13.76   0.0002863
 -132.71   45.17   17.68   0.0002947
 -133.29   46.25   22.59   0.0002849
 -131.89   47.54   31.39   0.0001939
 -130.56   46.45   60.93   0.0002125
 -134.12   54.27   13.42   0.0002016
 -134.33   54.11   18.20   0.0002008
 -134.44   54.19   21.56   0.0002075
 -134.52   54.38   25.16   0.0002181
 -134.33   54.90   31.83   0.0001518
 -133.46   55.10   56.61   0.0001282
 -135.25   64.02   12.68   0.0000907
 -135.48   63.99   21.15   0.0000978
 -135.42   63.99   25.47   0.0001019
 -135.32   63.99   29.20   0.0001129
 -135.31   63.94   34.43   0.0001158
 -135.26   64.28   49.31   0.0001006
 -135.62   74.25    4.78   0.0000696
 -135.69   74.24   21.49   0.0000713
 -135.70   74.29   29.00   0.0000747
 -135.61   74.25   33.82   0.0000828
 -135.55   74.19   38.51   0.0000967
 -135.72   74.24   46.93   0.0000786
 -135.77   84.63   -0.83   0.0000410
 -135.67   84.55   15.48   0.0000429
 -135.75   84.57   30.16   0.0000422
 -135.73   84.63   38.34   0.0000423
 -135.67   84.55   43.92   0.0000537
 -135.67   84.47   49.51   0.0000489
 -109.81    8.97  -10.89   0.0000827
 -119.48   11.48    2.75   0.0000820
 -116.44   13.27    2.76   0.0000640
 -105.14   15.03   15.98   0.0000378
  -98.52   12.23   32.31   0.0000622
  -99.52   10.66   36.14   0.0000779
 -110.87   18.99  -10.75   0.0002490
 -120.89   21.49    4.82   0.0002117
 -118.75   22.75    6.05   0.0001619
 -111.61   24.22   21.65   0.0000979
 -108.14   21.02   41.36   0.0001592
 -108.43   19.55   44.86   0.0002149
 -116.52   27.48   -4.38   0.0004046
 -122.24   29.44    6.44   0.0004052
 -121.12   30.54    8.92   0.0003101
 -117.05   32.00   23.50   0.0001916
 -115.02   29.27   48.00   0.0002948
 -115.48   27.83   52.52   0.0003652
 -121.17   35.77    1.74   0.0005337
 -122.76   36.38    6.69   0.0005187
 -123.07   37.23   10.84   0.0004742
 -121.30   38.63   22.88   0.0003141
 -120.11   36.98   52.94   0.0003895
 -120.68   35.89   58.77   0.0005062
 -124.09   44.43    6.37   0.0004598
 -124.15   44.51    9.26   0.0004406
 -124.17   44.61   12.69   0.0004374
 -124.02   45.29   22.17   0.0003294
 -123.42   45.01   53.69   0.0003295
 -124.00   44.45   62.92   0.0004000
 -124.99   54.09    8.85   0.0001731
 -124.91   54.14   12.43   0.0001751
 -124.81   54.15   16.17   0.0001827
 -124.94   54.05   23.37   0.0001815
 -124.87   54.14   46.99   0.0001638
 -125.01   54.10   63.49   0.0001616
 -125.32   64.22   10.13   0.0000751
 -125.24   64.24   15.58   0.0000822
 -125.14   64.24   20.24   0.0000882
 -125.17   64.19   26.84   0.0000936
 -125.30   64.23   40.74   0.0000903
 -125.15   64.21   60.62   0.0000786
 -125.67   74.35    9.01   0.0000571
 -125.74   74.46   18.25   0.0000581
 -125.60   74.32   24.57   0.0000636
 -125.58   74.22   30.64   0.0000699
 -125.82   74.27   39.91   0.0000768
 -125.74   74.40   54.16   0.0000656
 -126.54   84.78    3.38   0.0000136
 -126.20   84.51   17.20   0.0000144
 -126.24   84.67   27.38   0.0000146
 -126.24   84.36   35.43   0.0000156
 -126.37   84.26   42.59   0.0000204
 -126.57   84.49   52.09   0.0000171
 -113.61   12.13   -2.97   0.0000799
 -111.21   13.72   -2.41   0.0000627
 -100.69   15.67   11.11   0.0000371
  -93.26   12.93   27.02   0.0000613
  -93.28   11.40   29.88   0.0000782
 -101.77    9.92   41.02   0.0000838
 -113.85   21.39   -2.30   0.0002357
 -112.16   22.63   -0.71   0.0001733
 -105.69   24.36   15.32   0.0001054
 -101.62   21.45   34.90   0.0001757
 -101.50   20.05   38.00   0.0002215
 -104.04   19.45   42.62   0.0002617
 -113.85   28.77   -2.40   0.0004607
 -113.25   29.76    0.51   0.0003953
 -109.93   31.34   16.47   0.0002475
 -107.82   29.05   41.09   0.0003616
 -108.04   27.85   45.22   0.0004700
 -109.18   27.58   48.58   0.0004828
 -113.65   35.71   -2.87   0.0006598
 -113.96   36.06    1.06   0.0006052
 -113.12   37.23   15.60   0.0004617
 -112.42   36.12   45.66   0.0005523
 -112.75   35.54   50.97   0.0006260
 -113.11   35.53   53.93   0.0006664
 -114.53   44.49   -0.45   0.0004303
 -114.43   44.49    3.25   0.0004069
 -114.62   44.49   14.72   0.0004002
 -114.50   44.50   44.82   0.0003896
 -114.61   44.41   53.07   0.0003954
 -114.58   44.44   56.57   0.0004315
 -114.85   54.42    2.10   0.0001597
 -114.77   54.42    6.70   0.0001574
 -114.94   54.33   15.64   0.0001587
 -114.81   54.42   38.50   0.0001489
 -114.94   54.37   52.24   0.0001398
 -114.92   54.37   57.97   0.0001462
 -115.52   64.20    4.95   0.0000736
 -115.39   64.07   10.42   0.0000791
 -115.62   63.97   18.82   0.0000824
 -115.73   64.14   33.52   0.0000830
 -115.56   64.15   50.03   0.0000800
 -115.81   64.31   59.26   0.0000735
 -117.41   74.84    7.37   0.0000561
 -116.81   74.58   14.94   0.0000569
 -116.74   73.42   22.14   0.0000617
 -117.31   73.55   32.24   0.0000678
 -117.44   74.05   45.27   0.0000725
 -117.27   74.42   57.75   0.0000618
 -118.62   85.16    5.36   0.0000089
 -118.23   85.61   15.25   0.0000099
 -117.37   85.13   25.25   0.0000100
 -117.92   83.54   34.81   0.0000110
 -118.53   83.88   44.79   0.0000139
 -118.74   84.53   55.14   0.0000109
 -106.24   13.89   -7.36   0.0000618
  -96.44   16.02    6.47   0.0000374
  -88.29   13.42   22.04   0.0000609
  -87.63   11.92   24.24   0.0000784
  -95.57   10.45   34.93   0.0000854
 -108.15   12.36   51.64   0.0000775
 -105.42   22.43   -7.62   0.0001936
  -99.54   24.38    9.14   0.0001133
  -95.01   21.75   28.32   0.0001817
  -94.55   20.42   31.07   0.0002401
  -97.48   19.75   36.30   0.0002684
 -106.73   21.20   50.48   0.0002410
 -104.95   29.15   -8.20   0.0004386
 -102.23   30.78    9.84   0.0003106
 -100.13   28.82   33.61   0.0004237
 -100.19   27.83   37.40   0.0005279
 -101.58   27.60   41.22   0.0005791
 -105.19   28.27   48.55   0.0005193
 -104.42   35.51   -8.77   0.0007145
 -104.12   36.41    9.27   0.0005615
 -103.84   35.58   37.25   0.0006731
 -103.97   35.32   42.03   0.0007222
 -104.16   35.32   44.79   0.0007331
 -104.35   35.39   47.48   0.0007435
 -104.59   44.70   -6.30   0.0004023
 -104.74   44.65    8.68   0.0003746
 -104.72   44.69   35.29   0.0003664
 -104.73   44.64   42.38   0.0003692
 -104.71   44.67   45.98   0.0003860
 -104.68   44.71   49.26   0.0004117
 -104.87   54.50   -2.91   0.0001496
 -105.08   54.44    8.97   0.0001395
 -104.87   54.50   30.92   0.0001374
 -105.07   54.49   41.36   0.0001330
 -104.98   54.51   46.83   0.0001326
 -104.92   54.54   51.33   0.0001446
 -105.81   63.28    0.40   0.0000756
 -106.41   63.18   10.26   0.0000773
 -106.36   63.58   26.67   0.0000768
 -106.41   63.70   39.89   0.0000770
 -106.86   64.05   48.86   0.0000772
 -106.00   63.66   53.99   0.0000760
 -108.23   74.70    5.47   0.0000572
 -107.55   72.37   13.32   0.0000588
 -108.39   72.55   24.20   0.0000633
 -108.75   73.23   36.68   0.0000695
 -109.04   73.87   47.32   0.0000715
 -109.20   74.52   56.64   0.0000640
 -110.38   85.26    5.45   0.0000080
 -109.01   85.23   15.29   0.0000090
 -108.86   82.50   25.51   0.0000095
 -109.91   82.73   35.75   0.0000104
 -110.50   83.50   45.87   0.0000126
 -110.70   84.42   55.73   0.0000100
  -92.23   16.17    1.90   0.0000373
  -83.43   13.74   17.18   0.0000613
  -82.23   12.27   18.86   0.0000784
  -90.18   10.71   29.73   0.0000869
 -102.79   12.35   46.33   0.0000788
 -101.36   13.86   47.76   0.0000604
  -93.24   24.35    3.02   0.0001255
  -88.27   21.97   21.59   0.0001890
  -87.50   20.71   24.01   0.0002412
  -91.28   19.90   30.48   0.0002872
  -99.55   20.95   43.21   0.0002405
  -98.58   22.18   45.41   0.0001940
  -94.13   30.45    3.44   0.0003318
  -92.00   28.69   25.56   0.0004869
  -91.96   27.85   29.09   0.0005594
  -93.71   27.59   33.51   0.0006078
  -96.49   27.97   39.54   0.0005841
  -96.44   28.78   43.03   0.0004641
  -94.74   36.05    3.36   0.0006340
  -94.65   35.35   28.08   0.0007169
  -94.64   35.24   32.32   0.0008175
  -94.76   35.23   34.95   0.0008370
  -94.86   35.27   37.56   0.0008090
  -94.84   35.34   41.52   0.0007488
  -94.92   44.80    3.20   0.0003738
  -94.97   44.80   25.68   0.0003516
  -94.92   44.79   31.72   0.0003557
  -94.91   44.80   35.27   0.0003719
  -94.90   44.83   38.75   0.0003773
  -94.83   44.81   44.07   0.0003903
  -95.18   54.38    3.21   0.0001384
  -95.04   54.34   22.22   0.0001255
  -95.20   54.40   30.60   0.0001283
  -95.07   54.42   35.56   0.0001319
  -94.99   54.41   40.31   0.0001344
  -95.02   54.33   47.48   0.0001429
  -96.40   62.72    2.60   0.0000790
  -95.43   62.86   19.63   0.0000783
  -96.50   63.18   29.70   0.0000790
  -96.27   63.31   36.82   0.0000830
  -95.29   62.92   41.93   0.0000847
  -95.72   62.64   50.41   0.0000837
  -97.41   71.58    3.73   0.0000550
  -97.94   72.06   15.95   0.0000590
  -98.45   72.56   27.33   0.0000623
  -98.93   73.10   37.00   0.0000657
  -98.26   73.57   45.89   0.0000675
  -96.52   71.99   53.49   0.0000618
  -98.42   83.50    5.49   0.0000067
  -98.65   81.68   15.54   0.0000079
  -99.69   81.87   25.94   0.0000080
 -100.43   82.53   36.08   0.0000085
 -100.76   83.38   45.91   0.0000100
 -100.35   84.19   55.63   0.0000079
  -78.59   13.91   12.35   0.0000614
  -76.92   12.45   13.59   0.0000791
  -85.12   10.72   24.93   0.0000866
  -97.41   12.16   40.97   0.0000802
  -96.48   13.65   42.86   0.0000620
  -88.03   16.15   57.34   0.0000362
  -81.44   22.16   14.73   0.0002028
  -80.38   20.95   16.85   0.0002426
  -85.70   19.89   25.55   0.0002816
  -92.38   20.67   35.97   0.0002492
  -91.72   21.92   38.45   0.0001902
  -86.86   24.30   56.91   0.0001221
  -83.58   28.75   17.09   0.0004775
  -83.44   27.97   20.39   0.0005891
  -85.69   27.59   25.62   0.0006000
  -87.94   27.81   30.78   0.0005740
  -87.99   28.65   34.45   0.0004868
  -85.89   30.40   57.09   0.0003271
  -85.17   35.32   18.52   0.0007437
  -85.14   35.25   22.36   0.0008109
  -85.25   35.23   24.94   0.0008377
  -85.35   35.24   27.58   0.0008227
  -85.35   35.34   31.94   0.0007071
  -85.27   36.02   57.55   0.0006269
  -85.22   44.82   15.96   0.0003668
  -85.16   44.82   21.11   0.0003587
  -85.15   44.81   24.55   0.0003718
  -85.13   44.82   28.13   0.0003734
  -85.09   44.81   34.41   0.0003582
  -85.14   44.81   57.84   0.0003685
  -85.13   54.35   12.64   0.0001359
  -85.12   54.41   19.50   0.0001268
  -85.05   54.42   24.17   0.0001344
  -84.94   54.41   29.23   0.0001425
  -85.13   54.31   37.92   0.0001401
  -84.95   54.39   57.79   0.0001421
  -84.63   62.71    9.75   0.0000827
  -85.08   62.94   18.10   0.0000831
  -84.24   63.17   23.26   0.0000865
  -83.98   63.09   30.32   0.0000931
  -85.06   62.72   40.50   0.0000961
  -83.90   62.77   58.04   0.0000900
  -83.92   72.05    6.70   0.0000578
  -82.68   73.43   14.42   0.0000641
  -81.63   73.12   22.99   0.0000678
  -82.08   72.62   32.69   0.0000728
  -82.53   72.16   44.26   0.0000741
  -82.93   71.70   56.53   0.0000658
  -79.99   84.17    4.41   0.0000072
  -79.60   83.39   14.13   0.0000090
  -79.95   82.59   24.00   0.0000087
  -80.68   81.97   34.22   0.0000095
  -81.70   81.83   44.64   0.0000105
  -81.76   83.68   54.56   0.0000080
  -71.61   12.46    8.33   0.0000799
  -79.98   10.48   20.08   0.0000842
  -91.90   11.79   35.48   0.0000794
  -91.55   13.29   37.90   0.0000637
  -83.81   15.94   52.72   0.0000378
  -73.72   13.91   67.51   0.0000603
  -73.23   21.16    9.64   0.0002538
  -80.34   19.72   20.95   0.0002762
  -85.27   20.34   28.82   0.0002344
  -84.91   21.62   31.57   0.0001920
  -80.51   24.23   50.72   0.0001162
  -74.59   22.33   67.83   0.0001907
  -74.78   28.23   11.46   0.0005363
  -77.82   27.57   17.94   0.0005927
  -79.66   27.76   22.41   0.0005267
  -79.79   28.70   26.25   0.0004382
  -77.76   30.63   50.62   0.0003139
  -75.09   29.04   68.42   0.0004392
  -75.64   35.35   12.46   0.0007547
  -75.81   35.29   15.07   0.0007418
  -75.98   35.29   17.80   0.0007284
  -76.13   35.53   22.69   0.0006630
  -75.89   36.32   51.56   0.0005414
  -75.61   35.46   68.87   0.0007025
  -75.39   44.73   10.66   0.0003940
  -75.37   44.70   13.89   0.0003821
  -75.34   44.69   17.49   0.0003801
  -75.36   44.71   24.84   0.0003583
  -75.33   44.68   52.28   0.0003459
  -75.46   44.72   66.33   0.0003722
  -75.19   54.54    8.52   0.0001422
  -75.14   54.53   12.96   0.0001379
  -75.05   54.52   18.46   0.0001474
  -75.25   54.50   29.46   0.0001518
  -75.03   54.46   51.90   0.0001462
  -75.24   54.52   63.00   0.0001494
  -74.21   63.58    5.95   0.0000890
  -73.41   63.99   11.01   0.0000916
  -73.88   63.62   19.97   0.0000994
  -73.89   63.55   33.68   0.0001076
  -73.78   63.20   50.16   0.0001068
  -74.39   63.28   59.76   0.0000972
  -70.96   74.50    3.19   0.0000692
  -71.16   73.86   12.47   0.0000786
  -71.43   73.23   23.35   0.0000344
  -71.77   72.54   36.19   0.0000362
  -72.63   72.40   47.04   0.0000906
  -71.93   74.65   54.66   0.0000773
  -69.37   84.41    4.27   0.0000156
  -69.60   83.49   14.20   0.0000189
  -70.23   82.72   24.43   0.0000185
  -71.36   82.59   34.68   0.0000207
  -70.84   85.51   44.75   0.0000229
  -69.62   85.28   54.55   0.0000186
  -74.17    9.96   14.51   0.0000848
  -86.09   11.25   29.66   0.0000807
  -86.48   12.77   32.79   0.0000635
  -79.52   15.53   47.99   0.0000387
  -68.75   13.73   62.59   0.0000625
  -66.18   12.25   62.98   0.0000790
  -74.36   19.40   15.49   0.0002810
  -78.21   19.94   21.78   0.0002238
  -78.18   21.24   24.80   0.0001756
  -74.30   24.10   44.39   0.0001139
  -67.80   22.45   60.97   0.0001779
  -66.11   21.30   62.45   0.0002330
  -70.25   27.52   10.69   0.0005092
  -71.73   27.73   14.51   0.0004789
  -72.00   28.84   18.55   0.0003649
  -69.99   31.07   43.84   0.0002596
  -66.75   29.55   59.79   0.0004031
  -66.14   28.66   62.51   0.0004672
  -66.73   35.48    5.80   0.0006857
  -67.10   35.47    8.74   0.0006260
  -67.47   36.00   14.12   0.0005434
  -66.85   37.06   45.06   0.0004442
  -66.09   35.93   59.15   0.0005855
  -66.30   35.64   62.82   0.0006725
  -65.52   44.47    3.40   0.0004174
  -65.48   44.46    6.86   0.0003778
  -65.59   44.52   15.28   0.0003606
  -65.48   44.48   46.03   0.0003505
  -65.65   44.52   56.85   0.0003603
  -65.56   44.52   60.46   0.0004041
  -65.22   54.40    1.93   0.0001456
  -65.19   54.41    7.61   0.0001414
  -65.31   54.44   21.87   0.0001494
  -65.21   54.37   44.89   0.0001553
  -65.35   54.45   53.43   0.0001549
  -65.28   54.44   57.88   0.0001558
  -64.33   64.31    0.59   0.0000879
  -64.59   64.13    9.74   0.0000967
  -64.41   64.14   26.85   0.0001048
  -64.54   63.98   41.60   0.0001102
  -64.74   64.06   49.76   0.0001074
  -64.62   64.19   55.03   0.0000943
  -62.83   74.40    1.98   0.0000720
  -62.68   74.03   14.61   0.0000843
  -62.81   73.52   28.17   0.0000915
  -63.41   73.43   38.24   0.0000947
  -63.24   74.66   45.14   0.0000905
  -62.63   74.87   52.41   0.0000767
  -61.27   84.51    4.97   0.0000379
  -61.52   83.84   15.44   0.0000478
  -62.21   83.53   25.47   0.0000479
  -62.52   85.59   34.84   0.0000522
  -61.68   85.71   44.76   0.0000565
  -61.35   85.18   54.63   0.0000476
  -79.53   10.47   23.09   0.0000827
  -81.05   12.03   27.31   0.0000654
  -75.03   14.86   42.99   0.0000390
  -63.52   13.28   57.46   0.0000656
  -60.39   11.69   57.34   0.0000819
  -66.52    9.02   67.00   0.0000793
  -71.15   19.41   14.78   0.0002258
  -71.50   20.73   18.10   0.0001650
  -68.26   23.84   37.83   0.0001012
  -61.10   22.49   54.22   0.0001736
  -59.04   21.36   55.35   0.0002160
  -67.76   18.94   69.23   0.0002526
  -64.16   27.66    7.07   0.0003843
  -64.64   28.93   11.32   0.0003058
  -62.74   31.57   36.62   0.0001983
  -58.78   30.20   51.44   0.0003289
  -57.74   29.23   53.77   0.0004160
  -62.88   27.38   63.68   0.0004201
  -59.06   35.77    0.85   0.0005102
  -59.64   36.72    6.50   0.0003834
  -58.58   38.28   37.61   0.0003079
  -56.93   36.97   49.49   0.0004629
  -57.13   36.26   53.28   0.0005201
  -58.52   35.69   57.83   0.0005531
  -55.93   44.39   -3.17   0.0004157
  -56.47   44.85    6.01   0.0002982
  -55.99   45.06   38.37   0.0002888
  -55.88   44.51   47.56   0.0003821
  -55.85   44.45   50.77   0.0004060
  -55.87   44.38   53.51   0.0004321
  -55.14   54.13   -3.58   0.0001456
  -55.28   54.17   13.10   0.0001434
  -55.23   54.09   37.10   0.0001567
  -55.34   54.18   44.08   0.0001675
  -55.24   54.17   47.71   0.0001677
  -55.16   54.12   51.20   0.0001608
  -55.01   64.23   -0.90   0.0000787
  -54.88   64.25   19.37   0.0000922
  -55.01   64.20   33.61   0.0001012
  -55.03   64.26   40.07   0.0001033
  -54.93   64.26   44.59   0.0000972
  -54.86   64.24   49.84   0.0000830
  -54.40   74.39    5.46   0.0000604
  -54.30   74.26   20.47   0.0000732
  -54.56   74.21   29.84   0.0000783
  -54.54   74.33   35.79   0.0000768
  -54.38   74.49   41.79   0.0000715
  -54.43   74.37   50.73   0.0000611
  -53.48   84.48    8.12   0.0000314
  -53.73   84.23   17.87   0.0000417
  -53.90   84.41   25.02   0.0000412
  -53.83   84.90   32.66   0.0000433
  -53.84   84.67   42.65   0.0000500
  -53.53   84.79   56.21   0.0000411
  -74.59   10.97   20.77   0.0000680
  -69.78   13.69   37.19   0.0000418
  -57.44   12.28   51.58   0.0000668
  -52.99   10.12   50.25   0.0000887
  -53.51    7.40   53.94   0.0000769
  -70.69    9.32   74.18   0.0000825
  -64.74   20.03   11.33   0.0001659
  -62.34   23.37   30.90   0.0000941
  -54.48   22.36   47.56   0.0001558
  -51.99   21.24   48.33   0.0002132
  -60.56   18.28   62.29   0.0002332
  -63.91   18.71   67.64   0.0002040
  -57.56   28.81    4.38   0.0002339
  -56.05   31.93   28.80   0.0001575
  -51.29   30.84   43.54   0.0002528
  -49.71   29.83   45.46   0.0003376
  -55.55   27.08   56.77   0.0003651
  -56.82   27.42   59.98   0.0003013
  -52.64   37.47   -0.08   0.0002584
  -51.39   39.81   29.12   0.0001840
  -48.66   38.48   40.39   0.0003115
  -48.09   37.50   43.46   0.0003948
  -51.16   35.79   51.07   0.0003827
  -51.78   36.06   53.93   0.0003568
  -49.06   46.05   -1.95   0.0001983
  -47.90   47.05   29.32   0.0001740
  -46.68   45.88   37.89   0.0002611
  -47.11   45.05   42.23   0.0002943
  -47.75   44.70   45.87   0.0002909
  -48.09   44.88   49.16   0.0002679
  -46.38   54.82    2.80   0.0001562
  -45.63   54.60   28.76   0.0001607
  -45.52   54.20   35.25   0.0001853
  -45.52   54.10   38.53   0.0001980
  -45.56   54.05   41.67   0.0001879
  -45.72   54.14   46.20   0.0001716
  -44.81   64.15   10.34   0.0000799
  -44.85   63.93   26.03   0.0000929
  -44.85   63.99   31.22   0.0001018
  -44.75   64.00   34.84   0.0001011
  -44.67   63.99   38.96   0.0000953
  -44.81   63.99   46.89   0.0000794
  -44.46   74.25   13.34   0.0000398
  -44.64   74.19   22.02   0.0000491
  -44.58   74.25   26.69   0.0000513
  -44.49   74.29   31.33   0.0000495
  -44.49   74.25   38.40   0.0000449
  -44.59   74.24   54.44   0.0000388
  -44.52   84.46   10.91   0.0000030
  -44.53   84.53   16.72   0.0000040
  -44.48   84.61   22.12   0.0000038
  -44.44   84.58   29.82   0.0000043
  -44.53   84.52   43.56   0.0000049
  -44.42   84.63   60.71   0.0000039
  -15.90    5.95  -16.82   0.0000514
  -17.89    4.63   12.52   0.0000732
  -23.20    4.75   20.65   0.0000859
  -29.95    5.69   30.07   0.0000850
  -42.83    6.99   46.19   0.0000888
  -60.81    8.79   66.84   0.0000732
  -56.34   22.56   23.40   0.0000952
  -47.73   21.94   40.87   0.0001493
  -44.75   20.81   41.23   0.0001977
  -52.38   17.40   54.31   0.0002321
  -56.12   17.79   59.99   0.0001929
  -57.60   19.08   64.18   0.0001534
  -49.79   31.89   20.17   0.0001166
  -44.19   31.26   36.08   0.0002085
  -42.03   30.24   37.64   0.0002671
  -47.98   26.53   49.66   0.0002982
  -49.40   26.90   52.92   0.0002613
  -50.50   28.33   57.41   0.0001841
  -45.18   41.04   19.88   0.0001107
  -41.40   40.04   32.06   0.0001916
  -39.90   39.00   34.54   0.0002676
  -44.09   35.66   44.73   0.0002732
  -44.87   36.09   47.58   0.0002272
  -46.06   37.81   53.68   0.0001654
  -41.79   49.73   18.71   0.0000825
  -39.06   48.45   28.65   0.0001419
  -38.35   47.10   32.28   0.0001944
  -41.02   44.92   40.10   0.0001829
  -41.62   45.45   43.29   0.0001471
  -43.10   47.42   52.44   0.0000973
  -39.07   58.01   17.14   0.0000550
  -37.16   56.76   25.60   0.0000939
  -37.83   54.62   31.82   0.0001157
  -38.62   54.39   35.73   0.0001067
  -39.29   55.07   40.06   0.0000805
  -40.79   57.01   53.24   0.0000497
  -36.68   66.10   16.61   0.0000424
  -35.88   65.35   22.64   0.0001145
  -36.46   64.11   27.96   0.0001218
  -36.84   64.16   31.65   0.0000600
  -37.76   64.93   38.49   0.0000449
  -38.40   66.56   58.88   0.0000280
  -35.18   75.00   14.52   0.0000470
  -35.13   74.54   19.27   0.0000583
  -35.38   74.15   23.60   0.0000596
  -35.74   74.29   28.55   0.0000559
  -36.76   74.89   40.33   0.0000535
  -36.33   75.84   63.75   0.0000460
  -34.59   84.75   10.51   0.0000020
  -34.62   84.57   14.79   0.0000032
  -34.77   84.47   19.55   0.0000027
  -35.34   84.53   28.06   0.0000027
  -35.70   85.22   48.87   0.0000032
  -34.82   84.97   64.28   0.0000023
   21.73    4.70  -27.17   0.0000688
    7.31    4.38   -9.95   0.0000842
   -5.34    5.21    5.13   0.0000865
   -0.55    7.36    4.48   0.0000896
    8.81    7.80   -2.10   0.0000747
   29.90    7.40   -2.89   0.0000452
  -40.19   20.95   33.57   0.0001598
  -36.44   19.68   33.31   0.0002037
  -41.48   16.14   43.45   0.0002254
  -46.89   16.61   50.89   0.0002006
  -49.36   17.81   55.94   0.0001541
  -49.61   21.20   74.77   0.0000930
  -37.15   31.20   28.83   0.0001650
  -34.35   30.18   30.09   0.0002395
  -39.55   25.65   41.74   0.0002531
  -41.36   26.02   45.31   0.0002216
  -42.95   27.39   49.95   0.0001704
  -43.55   31.19   70.40   0.0000933
  -34.80   41.11   24.31   0.0001280
  -32.40   40.08   26.72   0.0001800
  -36.62   35.13   38.12   0.0001972
  -37.69   35.62   41.12   0.0001655
  -39.27   37.42   47.02   0.0001084
  -39.51   41.36   69.43   0.0000680
  -33.00   50.81   20.04   0.0000733
  -30.88   49.70   23.43   0.0001065
  -34.39   44.74   34.59   0.0001083
  -35.29   45.45   37.80   0.0000859
  -37.30   47.91   47.09   0.0000475
  -36.88   51.44   67.80   0.0000348
  -31.48   60.26   16.18   0.0000374
  -29.65   58.93   20.36   0.0000591
  -32.78   54.46   31.08   0.0000546
  -33.92   55.59   35.52   0.0000382
  -36.14   58.55   48.75   0.0000183
  -35.08   60.96   63.66   0.0000173
  -30.16   69.49   12.74   0.0000231
  -29.75   64.79   21.98   0.0000359
  -31.75   64.31   27.58   0.0000278
  -33.67   66.03   35.96   0.0000165
  -34.86   68.57   48.95   0.0000105
  -33.53   70.15   60.25   0.0000106
  -29.13   78.63    9.35   0.0000135
  -29.86   73.60   19.53   0.0000213
  -31.44   74.29   24.80   0.0000164
  -33.39   76.08   36.47   0.0000096
  -33.43   77.93   47.44   0.0000084
  -32.01   79.15   58.22   0.0000074
  -28.31   87.62    6.12   0.0000363
  -29.74   83.26   15.67   0.0000042
  -31.74   84.18   24.48   0.0000034
  -32.69   85.70   35.38   0.0000028
  -32.28   87.27   46.12   0.0000030
  -30.38   88.08   57.75   0.0000046
   25.73    5.04  -28.34   0.0000844
   13.62    5.49  -14.01   0.0000897
   13.06    8.33   -8.85   0.0000881
   20.60    8.89  -13.70   0.0000754
   38.43    8.75  -11.90   0.0000454
   36.13    5.76   18.45   0.0000677
   -3.69   12.87    1.64   0.0002258
  -11.07   13.35   11.30   0.0002354
  -31.41   15.05   35.45   0.0002191
  -36.55   16.02   43.11   0.0001812
  -32.25   17.30   55.74   0.0001249
    0.54   13.06   54.38   0.0001786
  -25.01   28.81   21.53   0.0002323
  -28.20   24.35   30.81   0.0002619
  -31.55   24.77   35.98   0.0002117
  -33.84   25.95   40.97   0.0001647
  -36.03   29.48   58.76   0.0000966
  -28.82   30.07   80.75   0.0001554
  -24.62   40.12   19.29   0.0001512
  -27.59   34.12   30.06   0.0001619
  -29.32   34.59   33.63   0.0001361
  -31.40   36.23   39.24   0.0000927
  -33.37   40.31   57.32   0.0000486
  -28.06   41.18   76.42   0.0000916
  -23.99   51.03   16.20   0.0000691
  -26.53   43.96   28.09   0.0000749
  -28.02   44.67   31.69   0.0000581
  -30.70   47.22   40.55   0.0000306
  -31.92   51.37   56.76   0.0000167
  -27.73   52.21   70.48   0.0000338
  -23.65   61.70   12.66   0.0000260
  -25.78   53.82   25.55   0.0000299
  -27.64   54.98   30.25   0.0000202
  -30.45   58.18   42.65   0.0000092
  -30.32   61.19   53.76   0.0000072
  -27.58   62.68   64.25   0.0000112
  -23.36   71.73    9.14   0.0000117
  -25.21   63.50   21.95   0.0000141
  -27.71   65.14   29.73   0.0000078
  -29.25   67.81   40.70   0.0000048
  -28.76   70.43   50.88   0.0000044
  -26.66   72.11   60.41   0.0000057
  -22.62   80.70    6.69   0.0000069
  -24.81   72.94   18.13   0.0000088
  -27.21   74.64   27.91   0.0000052
  -28.22   77.11   38.27   0.0000038
  -27.56   79.55   48.35   0.0000038
  -25.55   81.14   57.98   0.0000038
  -21.64   88.46    5.19   0.0000039
  -24.75   82.31   15.73   0.0000056
  -26.82   83.98   25.81   0.0000034
  -27.49   86.35   36.01   0.0000032
  -26.64   88.63   46.12   0.0000038
  -24.56   90.07   56.00   0.0000030
   27.45    6.08  -27.92   0.0000930
   21.93    9.11  -17.60   0.0000884
   28.17    9.72  -21.18   0.0000746
   43.95    9.85  -17.88   0.0000479
   44.76    6.80    9.86   0.0000699
   37.59    5.89   19.87   0.0000843
    9.97   13.25  -10.10   0.0002431
    8.39   16.68   -3.20   0.0002320
   12.95   17.41   -4.81   0.0001878
   21.88   17.03    1.94   0.0001146
   18.83   13.87   36.15   0.0001630
   13.73   13.18   44.41   0.0002118
    4.83   22.05   -4.40   0.0002552
   -1.21   24.59    6.56   0.0002938
    5.87   26.47    3.69   0.0002186
   13.59   26.33   10.15   0.0001194
   11.70   22.99   43.01   0.0001702
    7.61   22.15   51.09   0.0002183
    2.68   31.39   -1.71   0.0001792
  -16.46   33.16   21.84   0.0001554
  -18.88   34.25   27.11   0.0001164
    9.22   36.21   16.55   0.0000734
   10.03   32.89   42.99   0.0000868
    5.68   31.66   53.38   0.0001496
    0.97   41.11    0.47   0.0000852
  -17.69   43.26   22.99   0.0000570
  -20.53   45.06   29.89   0.0000339
  -22.38   48.59   44.45   0.0000180
    9.89   43.47   39.80   0.0000274
    5.22   41.57   53.93   0.0000611
   -3.83   51.43    5.58   0.0000320
  -18.43   53.43   22.81   0.0000167
  -21.85   56.02   33.04   0.0000079
  -22.76   59.30   44.71   0.0000052
  -19.67   61.14   53.95   0.0000070
    3.52   52.26   54.55   0.0000196
  -12.01   65.06   10.19   0.0000097
  -18.60   63.19   21.02   0.0000062
  -21.51   65.71   31.64   0.0000030
  -22.09   68.76   41.92   0.0000021
  -20.39   71.25   51.33   0.0000025
  -17.03   72.22   60.57   0.0000046
  -13.22   77.41    7.08   0.0000038
  -18.33   72.49   18.54   0.0000036
  -20.96   74.89   28.99   0.0000018
  -21.53   77.91   39.08   0.0000014
  -20.14   80.56   48.71   0.0000017
  -17.27   81.97   57.95   0.0000020
  -13.45   86.04    5.73   0.0000037
  -18.16   81.65   16.20   0.0000025
  -20.59   83.92   26.29   0.0000015
  -21.12   86.88   36.27   0.0000013
  -19.83   89.59   46.10   0.0000016
  -17.05   91.17   55.75   0.0000012
 -114.04   90.79  -66.00   0.0001982
 -104.16   91.95  -66.63   0.0002183
  -90.71   93.67  -67.00   0.0002500
  -76.90   95.14  -66.95   0.0002291
  -66.28   96.35  -66.67   0.0002043
  -60.36   96.89  -66.61   0.0001915
 -112.48   87.33  -73.83   0.0005636
 -102.93   89.82  -74.96   0.0006017
  -91.28   93.10  -75.66   0.0006850
  -80.09   96.22  -75.70   0.0006375
  -68.93   99.12  -75.09   0.0005625
  -61.62  101.07  -74.44   0.0005458
 -111.10   83.26  -82.59   0.0007373
 -101.99   87.28  -84.25   0.0008689
  -91.81   91.94  -85.25   0.0009430
  -81.38   96.83  -85.38   0.0009087
  -71.27  101.46  -84.62   0.0008359
  -63.61  104.83  -83.57   0.0007370
 -109.43   79.16  -91.63   0.0007007
 -101.16   84.52  -93.73   0.0007549
  -92.11   90.66  -95.03   0.0008571
  -82.79   97.17  -95.30   0.0008560
  -74.12  103.25  -94.59   0.0007493
  -66.23  108.22  -93.18   0.0007326
 -107.12   75.07 -100.92   0.0004711
  -99.83   81.97 -103.41   0.0004949
  -92.12   89.33 -104.89   0.0005430
  -84.17   97.21 -105.32   0.0005441
  -76.69  104.71 -104.70   0.0004968
  -69.52  111.11 -103.23   0.0004897
 -103.67   71.49 -110.78   0.0002448
  -97.88   79.31 -113.30   0.0002664
  -91.81   88.04 -114.80   0.0002830
  -85.46   96.98 -115.36   0.0002778
  -78.99  105.54 -114.87   0.0002610
  -73.38  113.33 -113.68   0.0002482
  -98.89   68.38 -121.28   0.0001217
  -94.96   77.22 -123.54   0.0001383
  -90.67   86.66 -124.81   0.0001300
  -86.07   96.29 -125.38   0.0001278
  -81.21  105.60 -125.07   0.0001267
  -76.73  114.41 -124.09   0.0001163
  -93.14   66.03 -132.05   0.0000705
  -91.71   75.66 -133.91   0.0000873
  -88.42   85.36 -134.94   0.0000846
  -86.33   95.67 -135.33   0.0000861
  -83.16  105.60 -135.20   0.0000832
  -79.81  115.02 -134.41   0.0000642
  -87.75   65.06 -142.49   0.0000646
  -89.01   74.83 -144.14   0.0000787
  -88.24   84.93 -144.79   0.0000858
  -87.21   95.30 -145.28   0.0000925
  -85.81  105.58 -145.45   0.0000770
  -83.48  115.44 -144.92   0.0000569
 -104.07   90.75  -66.13   0.0002146
  -90.64   92.39  -66.78   0.0002476
  -76.84   93.84  -67.03   0.0002232
  -66.70   95.25  -66.99   0.0002050
  -60.32   95.66  -67.07   0.0001926
 -113.93   89.69   -5.31   0.0001954
 -102.59   87.24  -73.90   0.0006101
  -90.93   90.39  -75.14   0.0006799
  -79.76   93.46  -75.71   0.0006184
  -69.20   96.39  -75.67   0.0005590
  -61.33   98.45  -75.35   0.0005192
 -112.14   84.98  -12.37   0.0005399
 -101.16   83.24  -82.66   0.0007800
  -90.94   87.64  -84.39   0.0009554
  -80.52   92.46  -85.32   0.0008792
  -70.39   97.18  -85.33   0.0007828
  -62.82  100.73  -84.85   0.0007555
 -110.66   79.32  -20.23   0.0006786
  -99.62   79.07  -91.69   0.0007263
  -90.46   84.87  -93.87   0.0008052
  -81.11   91.27  -95.10   0.0008429
  -72.44   97.46  -95.29   0.0007339
  -64.62  102.72  -94.68   0.0006654
 -108.25   73.89  -28.66   0.0006284
  -97.60   74.71 -100.95   0.0004788
  -89.46   82.18 -103.51   0.0005225
  -81.43   89.93 -104.95   0.0005544
  -73.89   97.58 -105.30   0.0004943
  -66.80  104.39 -104.72   0.0004428
  -60.53  109.98 -103.66   0.0004320
  -94.32   70.94 -110.80   0.0002480
  -87.69   79.32 -113.35   0.0002782
  -81.42   88.53 -114.84   0.0002866
  -74.85   97.33 -115.33   0.0002729
  -68.91  105.60 -114.85   0.0002381
  -63.74  112.21 -113.99   0.0002289
  -89.48   67.91 -121.50   0.0001199
  -84.94   77.15 -123.55   0.0001368
  -80.06   86.67 -124.88   0.0001309
  -75.62   96.47 -125.36   0.0001261
  -71.14  105.94 -125.05   0.0001203
  -66.85  113.70 -124.32   0.0001079
  -83.15   65.67 -132.99   0.0000632
  -81.26   75.43 -134.08   0.0000755
  -78.07   85.32 -135.00   0.0000736
  -75.38   95.60 -135.29   0.0000765
  -73.17  105.72 -135.21   0.0000722
  -69.27  114.64 -134.29   0.0000568
  -77.44   64.92 -143.33   0.0000517
  -78.01   74.61 -144.48   0.0000619
  -77.11   84.81 -144.94   0.0000663
  -76.12   95.25 -145.22   0.0000698
  -74.97  105.56 -145.26   0.0000609
  -73.15  115.40 -144.81   0.0000469
  -90.56   91.20  -66.35   0.0002433
  -76.76   92.58  -66.89   0.0002195
  -66.63   93.99  -67.07   0.0001986
  -60.25   94.42  -67.32   0.0001918
 -113.86   88.76   -4.45   0.0001963
 -103.99   89.68   -5.44   0.0002132
  -90.61   87.82  -74.18   0.0006874
  -78.74   90.74  -75.29   0.0006045
  -68.19   93.69  -75.73   0.0005273
  -60.87   95.65  -75.80   0.0004983
 -111.92   82.95  -10.55   0.0004997
 -102.32   84.93  -12.43   0.0005816
  -90.17   83.59  -82.87   0.0008366
  -79.65   88.19  -84.57   0.0008622
  -69.46   92.89  -85.34   0.0006954
  -61.67   96.48  -85.43   0.0006500
 -110.20   76.11  -17.43   0.0006332
 -101.11   79.19  -20.24   0.0006886
  -89.04   79.39  -91.87   0.0007201
  -79.49   85.52  -94.06   0.0007459
  -70.10   91.88  -95.15   0.0006197
  -62.51   97.18  -95.29   0.0005536
  -56.26  101.38  -94.99   0.0004995
  -98.97   73.65  -28.58   0.0005828
  -87.40   74.96 -101.05   0.0004276
  -78.63   82.75 -103.68   0.0004737
  -70.58   90.69 -105.02   0.0004117
  -63.17   97.92 -105.23   0.0003410
  -57.76  103.13 -104.91   0.0003123
  -96.44   67.75  -37.17   0.0003412
  -84.75   70.58 -110.65   0.0002017
  -77.41   79.79 -113.42   0.0002424
  -70.49   89.36 -114.93   0.0002357
  -64.05   98.46 -115.24   0.0001862
  -59.26  104.88 -114.86   0.0001659
  -91.99   62.81  -46.80   0.0001615
  -80.79   66.38 -120.91   0.0000958
  -75.19   76.85 -123.46   0.0001223
  -69.88   87.38 -124.91   0.0001208
  -64.88   97.75 -125.30   0.0001078
  -60.84  106.88 -124.92   0.0000931
  -57.69  112.31 -124.48   0.0000851
  -74.55   64.86 -132.64   0.0000581
  -71.81   74.79 -133.92   0.0000735
  -68.69   85.54 -134.94   0.0000769
  -66.00   96.33 -135.35   0.0000839
  -62.99  107.56 -135.17   0.0000687
  -60.42  114.99 -134.43   0.0000552
   25.00   85.02    5.00   0.0000000
  -68.21   73.62 -144.49   0.0000604
  -67.03   84.50 -145.00   0.0000561
  -66.39   95.41 -145.28   0.0000618
  -65.57  106.10 -145.43   0.0000602
  -63.38  117.42 -144.71   0.0000415
  -76.68   91.39  -66.55   0.0002134
  -66.06   92.61  -66.96   0.0001955
  -60.17   93.19  -67.34   0.0001863
 -113.81   88.01   -3.46   0.0001956
 -103.93   88.77   -4.58   0.0002143
  -90.48   90.12   -5.72   0.0002446
  -78.41   88.16  -74.43   0.0005913
  -67.81   91.02  -75.36   0.0004966
  -60.47   92.98  -75.78   0.0004599
 -112.22   81.10   -8.27   0.0004644
 -102.14   82.92  -10.60   0.0005321
  -90.45   85.25  -12.76   0.0006682
  -78.37   84.16  -83.22   0.0007049
  -67.90   88.84  -84.74   0.0005825
  -60.45   92.27  -85.35   0.0005083
 -110.67   73.13  -13.72   0.0004792
 -100.77   76.00  -17.36   0.0005847
  -89.80   79.62  -20.62   0.0007271
  -77.77   80.05  -92.21   0.0005693
  -67.31   86.72  -94.35   0.0003701
  -59.75   91.96  -95.11   0.0003129
  -54.74   95.31  -95.31   0.0002874
 -100.08   68.30  -23.89   0.0002970
  -88.67   73.68  -28.69   0.0004713
  -76.35   75.65 -101.36   0.0002552
  -66.20   84.85 -104.10   0.0001795
  -57.61   93.48 -104.79   0.0001121
  -54.26   96.64 -104.63   0.0000976
  -52.09   98.55 -104.39   0.0000940
  -88.03   66.74  -36.37   0.0001404
  -78.86   66.70 -108.40   0.0000637
  -64.76   83.22 -113.76   0.0000809
   35.00   55.15   25.00   0.0000000
   35.00   55.15   35.00   0.0000000
   35.00   55.15   45.00   0.0000000
   35.00   55.15   55.00   0.0000000
   35.00   65.10    5.00   0.0000000
   35.00   65.10   15.00   0.0000000
   35.00   65.10   25.00   0.0000000
   35.00   65.10   35.00   0.0000000
   35.00   65.10   45.00   0.0000000
   35.00   65.10   55.00   0.0000000
   35.00   75.06    5.00   0.0000000
   35.00   75.06   15.00   0.0000000
   35.00   75.06   25.00   0.0000000
   35.00   75.06   35.00   0.0000000
   35.00   75.06   45.00   0.0000000
   35.00   75.06   55.00   0.0000000
   35.00   85.02    5.00   0.0000000
   35.00   85.02   15.00   0.0000000
   35.00   85.02   25.00   0.0000000
   35.00   85.02   35.00   0.0000000
   35.00   85.02   45.00   0.0000000
   35.00   85.02   55.00   0.0000000
  -65.98   91.43  -66.64   0.0001888
  -60.09   92.00  -67.15   0.0001815
 -113.80   87.45   -2.37   0.0001916
 -103.88   88.03   -3.59   0.0002133
  -90.40   89.17   -4.93   0.0002473
  -76.60   90.29   -6.00   0.0002141
  -67.47   88.46  -74.56   0.0004609
  -59.99   90.26  -75.33   0.0004162
 -112.27   79.87   -5.85   0.0004230
 -102.05   81.26   -8.44   0.0004900
  -90.25   83.20  -11.00   0.0006224
  -78.14   85.79  -13.16   0.0005577
  -65.81   85.19  -83.64   0.0003551
  -59.13   88.18  -84.63   0.0003333
 -111.76   70.91   -9.35   0.0003060
 -102.06   72.86  -13.36   0.0003579
  -89.44   76.38  -17.83   0.0005944
  -77.76   80.43  -21.18   0.0005316
  -58.44   85.93  -93.32   0.0000552
   45.00   35.31   15.00   0.0000000
   45.00   35.31   25.00   0.0000000
   45.00   35.31   35.00   0.0000000
  -91.12   67.86  -23.37   0.0000997
  -75.39   75.30  -29.78   0.0002100
   45.00   45.22    5.00   0.0000000
   45.00   45.22   15.00   0.0000000
   45.00   45.22   25.00   0.0000000
   45.00   45.22   35.00   0.0000000
   45.00   45.22   45.00   0.0000000
   45.00   45.22   55.00   0.0000000
   45.00   55.15    5.00   0.0000000
   45.00   55.15   15.00   0.0000000
   45.00   55.15   25.00   0.0000000
   45.00   55.15   35.00   0.0000000
   45.00   55.15   45.00   0.0000000
   45.00   55.15   55.00   0.0000000
   45.00   65.10    5.00   0.0000000
   45.00   65.10   15.00   0.0000000
   45.00   65.10   25.00   0.0000000
   45.00   65.10   35.00   0.0000000
   45.00   65.10   45.00   0.0000000
   45.00   65.10   55.00   0.0000000
   45.00   75.06    5.00   0.0000000
   45.00   75.06   15.00   0.0000000
   45.00   75.06   25.00   0.0000000
   45.00   75.06   35.00   0.0000000
   45.00   75.06   45.00   0.0000000
   45.00   75.06   55.00   0.0000000
   45.00   85.02    5.00   0.0000000
   45.00   85.02   15.00   0.0000000
   45.00   85.02   25.00   0.0000000
   45.00   85.02   35.00   0.0000000
   45.00   85.02   45.00   0.0000000
   45.00   85.02   55.00   0.0000000
  -60.01   90.70  -66.81   0.0001764
 -113.81   87.11   -1.20   0.0001875
 -103.84   87.49   -2.50   0.0002112
  -90.32   88.38   -4.00   0.0002475
  -76.52   89.31   -5.28   0.0002141
  -65.92   90.34   -6.12   0.0001885
  -59.61   87.68  -74.44   0.0003741
 -112.84   78.96   -3.08   0.0003757
 -102.75   79.79   -5.83   0.0004500
  -90.12   81.49   -8.92   0.0005893
  -77.92   83.68  -11.49   0.0004945
  -66.59   86.11  -13.41   0.0004145
  -57.26   84.37  -83.19   0.0001229
  -54.83   85.28  -83.52   0.0001275
 -106.96   70.16   -7.27   0.0001450
  -89.87   73.34  -14.24   0.0003634
  -76.25   77.24  -18.83   0.0003219
  -61.76   82.55  -22.39   0.0001458
   55.00   35.31    5.00   0.0000000
   55.00   35.31   15.00   0.0000000
   55.00   35.31   25.00   0.0000000
   55.00   35.31   35.00   0.0000000
   55.00   35.31   45.00   0.0000000
   55.00   35.31   55.00   0.0000000
   55.00   45.22    5.00   0.0000000
   55.00   45.22   15.00   0.0000000
   55.00   45.22   25.00   0.0000000
   55.00   45.22   35.00   0.0000000
   55.00   45.22   45.00   0.0000000
   55.00   45.22   55.00   0.0000000
   55.00   55.15    5.00   0.0000000
   55.00   55.15   15.00   0.0000000
   55.00   55.15   25.00   0.0000000
   55.00   55.15   35.00   0.0000000
   55.00   55.15   45.00   0.0000000
   55.00   55.15   55.00   0.0000000
   55.00   65.10    5.00   0.0000000
   55.00   65.10   15.00   0.0000000
   55.00   65.10   25.00   0.0000000
   55.00   65.10   35.00   0.0000000
   55.00   65.10   45.00   0.0000000
   55.00   65.10   55.00   0.0000000
   55.00   75.06    5.00   0.0000000
   55.00   75.06   15.00   0.0000000
   55.00   75.06   25.00   0.0000000
   55.00   75.06   35.00   0.0000000
   55.00   75.06   45.00   0.0000000
   55.00   75.06   55.00   0.0000000
   55.00   85.02    5.00   0.0000000
   55.00   85.02   15.00   0.0000000
   55.00   85.02   25.00   0.0000000
   55.00   85.02   35.00   0.0000000
   55.00   85.02   45.00   0.0000000
   55.00   85.02   55.00   0.0000000
 -113.84   86.98    0.02   0.0001817
 -103.80   87.14   -1.32   0.0002078
  -90.25   87.78   -2.94   0.0002461
  -76.45   88.48   -4.40   0.0002120
  -65.88   89.36   -5.41   0.0001888
  -59.96   89.68   -6.23   0.0001768
 -113.51   78.58   -0.20   0.0003392
 -102.83   79.02   -3.21   0.0004058
  -90.06   80.17   -6.56   0.0005661
  -77.08   81.85   -9.63   0.0004419
  -65.85   83.98  -11.91   0.0003520
  -59.36   85.31  -13.13   0.0003347
   65.00   25.46    5.00   0.0000000
   65.00   25.46   15.00   0.0000000
  -91.29   70.89   -9.80   0.0001736
  -72.32   75.19  -16.88   0.0000907
   65.00   25.46   45.00   0.0000000
   65.00   25.46   55.00   0.0000000
   65.00   35.31    5.00   0.0000000
   65.00   35.31   15.00   0.0000000
   65.00   35.31   25.00   0.0000000
   65.00   35.31   35.00   0.0000000
   65.00   35.31   45.00   0.0000000
   65.00   35.31   55.00   0.0000000
   65.00   45.22    5.00   0.0000000
   65.00   45.22   15.00   0.0000000
   65.00   45.22   25.00   0.0000000
   65.00   45.22   35.00   0.0000000
   65.00   45.22   45.00   0.0000000
   65.00   45.22   55.00   0.0000000
   65.00   55.15    5.00   0.0000000
   65.00   55.15   15.00   0.0000000
   65.00   55.15   25.00   0.0000000
  -18.99   52.81  -93.51   0.0000562
   65.00   55.15   45.00   0.0000000
   65.00   55.15   55.00   0.0000000
   65.00   65.10    5.00   0.0000000
   65.00   65.10   15.00   0.0000000
   65.00   65.10   25.00   0.0000000
   65.00   65.10   35.00   0.0000000
   65.00   65.10   45.00   0.0000000
   65.00   65.10   55.00   0.0000000
   65.00   75.06    5.00   0.0000000
    0.63   97.54 -160.51   0.0000497
   65.00   75.06   25.00   0.0000000
   65.00   75.06   35.00   0.0000000
   65.00   75.06   45.00   0.0000000
   65.00   75.06   55.00   0.0000000
   65.00   85.02    5.00   0.0000000
   65.00   85.02   15.00   0.0000000
   65.00   85.02   25.00   0.0000000
   65.00   85.02   35.00   0.0000000
   65.00   85.02   45.00   0.0000000
   65.00   85.02   55.00   0.0000000
 -103.77   87.00   -0.11   0.0002016
  -90.18   87.36   -1.79   0.0002427
  -76.40   87.82   -3.39   0.0002108
  -65.86   88.52   -4.55   0.0001864
  -59.93   88.78   -5.49   0.0001778
 -113.88   87.06   61.23   0.0001859
 -102.94   78.69   -0.49   0.0003790
  -90.05   79.27   -4.01   0.0005372
  -77.00   80.43   -7.36   0.0004084
  -65.29   82.13  -10.08   0.0003093
  -59.28   83.18  -11.43   0.0002934
 -113.83   78.79   62.56   0.0003162
   75.00   25.46    5.00   0.0000000
  -96.76   69.31   -3.22   0.0000578
   75.00   25.46   25.00   0.0000000
   75.00   25.46   35.00   0.0000000
   75.00   25.46   45.00   0.0000000
   75.00   25.46   55.00   0.0000000
   75.00   35.31    5.00   0.0000000
   75.00   35.31   15.00   0.0000000
   75.00   35.31   25.00   0.0000000
   75.00   35.31   35.00   0.0000000
   75.00   35.31   45.00   0.0000000
   75.00   35.31   55.00   0.0000000
  -45.15   29.85  -72.69   0.0000842
  -33.10   36.71  -78.33   0.0000887
   75.00   45.22   25.00   0.0000000
   -8.11   59.44  -81.13   0.0000872
   75.00   45.22   45.00   0.0000000
  -53.87   26.54   -7.64   0.0000824
  -27.22   29.31  -91.83   0.0000863
  -19.52   37.17  -94.08   0.0000869
  -12.12   47.62  -94.24   0.0000865
   -5.34   58.99  -92.08   0.0000826
   -0.72   66.62  -90.54   0.0000850
    2.95   72.67  -88.47   0.0000886
    7.14   84.72 -155.14   0.0000565
   75.00   65.10   15.00   0.0000000
   -6.15   49.02 -106.00   0.0000584
   -3.01   58.98 -103.61   0.0000544
    0.34   68.38 -101.04   0.0000515
    3.65   76.86  -98.31   0.0000517
    7.14   89.01 -164.39   0.0000578
   10.95   97.35 -160.20   0.0000634
    2.33   52.86 -118.94   0.0000652
    3.22   61.79 -114.99   0.0000637
    3.59   71.03 -111.26   0.0000567
    4.23   80.31 -107.77   0.0000532
   75.00   85.02    5.00   0.0000000
    6.99  101.95 -170.12   0.0000479
   75.00   85.02   25.00   0.0000000
   75.00   85.02   35.00   0.0000000
   75.00   85.02   45.00   0.0000000
   75.00   85.02   55.00   0.0000000
  -90.11   87.15   -0.60   0.0002361
  -76.35   87.34   -2.28   0.0002080
  -65.87   87.85   -3.54   0.0001880
  -59.91   87.87   -4.67   0.0001783
 -113.91   87.35   62.41   0.0001890
 -103.73   87.07   61.10   0.0002086
  -90.13   78.66   -1.32   0.0005296
  -77.00   79.40   -4.86   0.0003813
  -65.42   80.61   -7.82   0.0002972
  -59.37   81.38   -9.38   0.0002732
 -114.57   79.43   65.38   0.0002945
 -103.04   78.83   62.24   0.0003832
   85.00   25.46    5.00   0.0000000
   85.00   25.46   15.00   0.0000000
   85.00   25.46   25.00   0.0000000
   85.00   25.46   35.00   0.0000000
   85.00   25.46   45.00   0.0000000
   85.00   25.46   55.00   0.0000000
   85.00   35.31    5.00   0.0000000
   85.00   35.31   15.00   0.0000000
   85.00   35.31   25.00   0.0000000
   85.00   35.31   35.00   0.0000000
   85.00   35.31   45.00   0.0000000
   85.00   35.31   55.00   0.0000000
  -30.32   32.34  -75.37   0.0001375
 -121.56   20.82   50.63   0.0001338
  -93.43   19.33   28.51   0.0001314
  -78.24   19.84   16.84   0.0001250
  -65.47   21.28    7.28   0.0001278
  -48.86   24.75   -4.49   0.0001358
  -15.82   30.18  -92.32   0.0001072
 -143.28   14.84   71.60   0.0001059
   -0.75   50.66  -92.87   0.0001079
    3.91   57.58  -92.32   0.0001021
  -45.08   15.32  -13.35   0.0001045
  -27.57   21.62  -26.13   0.0001047
   -1.76   31.10 -109.23   0.0000586
    1.43   40.98 -107.50   0.0000628
    4.52   50.55 -105.53   0.0000589
    7.00   59.55 -103.15   0.0000598
   85.00   65.10   45.00   0.0000000
   85.00   65.10   55.00   0.0000000
   85.00   75.06    5.00   0.0000000
   12.12   43.58 -122.42   0.0000619
   12.28   52.67 -118.32   0.0000656
   12.60   61.87 -114.61   0.0000633
   13.21   71.08 -111.08   0.0000561
   14.08   80.27 -107.61   0.0000552
   85.00   85.02    5.00   0.0000000
   85.00   85.02   15.00   0.0000000
   85.00   85.02   25.00   0.0000000
   85.00   85.02   35.00   0.0000000
   85.00   85.02   45.00   0.0000000
   85.00   85.02   55.00   0.0000000
  -76.32   87.05   -1.10   0.0002025
  -65.89   87.35   -2.44   0.0001870
 -119.75   87.83   64.62   0.0001822
 -113.93   87.84   63.52   0.0001882
 -103.69   87.35   62.29   0.0002133
  -90.05   87.15   60.62   0.0002450
  -77.07   78.81   -2.20   0.0003815
  -65.65   79.48   -5.31   0.0002986
 -120.29   81.32   69.30   0.0002904
 -114.35   80.58   67.76   0.0002989
 -103.11   79.42   64.89   0.0003880
  -90.12   78.81   61.39   0.0005597
   95.00   25.46    5.00   0.0000000
   95.00   25.46   15.00   0.0000000
   95.00   25.46   25.00   0.0000000
   95.00   25.46   35.00   0.0000000
   95.00   25.46   45.00   0.0000000
   95.00   25.46   55.00   0.0000000
   95.00   35.31    5.00   0.0000000
   95.00   35.31   15.00   0.0000000
   95.00   35.31   25.00   0.0000000
   95.00   35.31   35.00   0.0000000
   95.00   35.31   45.00   0.0000000
   95.00   35.31   55.00   0.0000000
 -132.25   24.96   65.31   0.0001497
 -114.03   21.06   52.39   0.0001412
 -100.01   19.56   41.79   0.0001388
 -173.98   51.25  141.79   0.0001472
  -59.00   20.71    9.81   0.0001457
 -151.37   33.24  136.15   0.0001480
 -153.41   21.83   86.97   0.0001183
 -135.19   15.11   73.75   0.0001156
  176.15   57.05  152.68   0.0001156
 -179.45   50.14  153.61   0.0001141
 -174.00   42.13  153.50   0.0001161
 -165.46   30.87  153.00   0.0001178
   95.00   65.10    5.00   0.0000000
  169.37   67.47  160.78   0.0000633
  172.67   59.33  163.36   0.0000618
  175.64   50.66  165.40   0.0000613
  178.63   41.29  167.30   0.0000613
 -178.03   31.41  168.90   0.0000603
  165.74   80.24  167.57   0.0000555
  166.16   70.96  171.22   0.0000595
  167.41   61.88  174.53   0.0000603
  168.45   52.76  177.77   0.0000565
   95.00   75.06   45.00   0.0000000
   95.00   75.06   55.00   0.0000000
   95.00   85.02    5.00   0.0000000
   95.00   85.02   15.00   0.0000000
   95.00   85.02   25.00   0.0000000
   95.00   85.02   35.00   0.0000000
   95.00   85.02   45.00   0.0000000
   95.00   85.02   55.00   0.0000000
  -65.93   87.05   -1.26   0.0001828
 -119.76   88.74   65.45   0.0001810
 -113.93   88.51   64.52   0.0001945
 -103.64   87.82   63.40   0.0002133
  -89.98   87.36   61.81   0.0002499
  -76.29   86.98   60.12   0.0002103
  -65.94   78.79   -2.63   0.0003263
 -120.42   83.12   71.37   0.0003170
 -113.96   82.09   69.91   0.0003474
 -103.11   80.44   67.39   0.0004207
  -90.15   79.27   64.06   0.0005685
  -77.17   78.68   60.52   0.0004205
  105.00   25.46    5.00   0.0000000
  105.00   25.46   15.00   0.0000000
  105.00   25.46   25.00   0.0000000
  105.00   25.46   35.00   0.0000000
  -86.96   69.47   64.85   0.0000692
  105.00   25.46   55.00   0.0000000
  105.00   35.31    5.00   0.0000000
  105.00   35.31   15.00   0.0000000
  105.00   35.31   25.00   0.0000000
  105.00   35.31   35.00   0.0000000
  105.00   35.31   45.00   0.0000000
  105.00   35.31   55.00   0.0000000
 -125.94   26.13   67.62   0.0001104
 -117.15   23.86   61.90   0.0001161
 -171.44   58.65  141.51   0.0001198
  -75.14   19.29   30.01   0.0001074
 -148.60   37.67  139.04   0.0001169
 -135.51   29.99  133.12   0.0001085
  176.89   71.95  148.95   0.0001215
 -179.55   65.67  151.18   0.0001206
 -174.94   58.13  152.88   0.0001131
 -168.79   48.33  154.41   0.0001128
 -161.83   37.81  154.73   0.0001142
 -154.00   29.47  152.67   0.0001144
  175.58   76.40  158.50   0.0000659
  178.83   68.06  161.32   0.0000649
 -178.10   59.12  163.94   0.0000627
 -175.08   49.48  166.45   0.0000620
 -171.89   40.27  168.50   0.0000611
  172.29   84.49 -144.95   0.0000626
  175.23   80.20  167.83   0.0000543
  175.93   70.95  171.38   0.0000608
  177.38   61.91  174.61   0.0000630
  178.12   52.84  178.28   0.0000564
  170.05   97.66 -139.72   0.0000539
  173.25   89.14 -135.61   0.0000517
  105.00   85.02    5.00   0.0000000
  105.00   85.02   15.00   0.0000000
  105.00   85.02   25.00   0.0000000
  105.00   85.02   35.00   0.0000000
  105.00   85.02   45.00   0.0000000
  105.00   85.02   55.00   0.0000000
 -119.74   89.63   66.20   0.0001785
 -113.91   89.34   65.39   0.0001959
 -103.57   88.48   64.41   0.0002211
  -89.91   87.77   62.96   0.0002479
  -76.27   87.12   61.33   0.0002152
  -65.97   86.97   59.96   0.0001909
 -120.32   85.31   73.06   0.0003668
 -113.95   83.94   71.87   0.0003998
 -102.32   81.90   69.51   0.0005004
  -90.13   80.18   66.61   0.0005972
  -77.27   79.00   63.24   0.0004489
  -66.71   78.66   60.29   0.0003872
  115.00   25.46    5.00   0.0000000
  115.00   25.46   15.00   0.0000000
 -107.13   75.07   76.71   0.0001027
  -89.69   71.09   70.22   0.0002201
  115.00   25.46   45.00   0.0000000
  115.00   25.46   55.00   0.0000000
  115.00   35.31    5.00   0.0000000
  115.00   35.31   15.00   0.0000000
  115.00   35.31   25.00   0.0000000
  115.00   35.31   35.00   0.0000000
  115.00   35.31   45.00   0.0000000
  115.00   35.31   55.00   0.0000000
  115.00   45.22    5.00   0.0000000
  115.00   45.22   15.00   0.0000000
  115.00   45.22   25.00   0.0000000
  115.00   45.22   35.00   0.0000000
  115.00   45.22   45.00   0.0000000
  115.00   45.22   55.00   0.0000000
 -175.15   74.53  148.13   0.0000966
 -170.24   66.35  150.89   0.0000861
 -162.93   54.28  153.83   0.0000874
 -156.70   44.44  154.81   0.0000792
 -151.54   37.63  154.81   0.0000848
 -179.18   80.62 -154.37   0.0000960
 -175.32   76.49  158.50   0.0000623
 -171.42   66.60  161.93   0.0000613
 -167.96   56.90  164.71   0.0000610
  115.00   65.10   35.00   0.0000000
  177.20   92.67 -148.80   0.0000616
 -179.12   85.09 -145.08   0.0000617
 -176.22   79.75  168.13   0.0000549
 -175.06   70.65  171.78   0.0000636
 -173.85   61.75  175.41   0.0000618
  175.13  105.67 -144.51   0.0000585
  178.89   97.41 -139.57   0.0000570
 -178.11   88.77 -135.53   0.0000523
 -176.67   83.62  177.36   0.0000475
 -177.17   74.43 -178.72   0.0000536
  115.00   85.02   25.00   0.0000000
  115.00   85.02   35.00   0.0000000
  115.00   85.02   45.00   0.0000000
  115.00   85.02   55.00   0.0000000
 -113.87   90.31   66.10   0.0001927
 -103.49   89.31   65.29   0.0002222
  -89.83   88.38   64.01   0.0002560
  -76.24   87.46   62.51   0.0002149
  -66.01   87.09   61.17   0.0001968
 -119.70   90.82  126.74   0.0001865
 -113.24   86.06   73.39   0.0004669
 -102.16   83.69   71.51   0.0005619
  -90.05   81.50   68.96   0.0006754
  -78.05   79.99   66.05   0.0004936
  -67.42   79.06   63.19   0.0004323
 -120.09   87.70  134.39   0.0004489
 -117.45   82.25   82.26   0.0001962
 -103.94   77.30   78.89   0.0003933
  -90.45   73.40   74.35   0.0004812
  -74.59   70.37   67.99   0.0001933
 -125.03   85.24  143.64   0.0001750
 -122.12   84.14  143.18   0.0001753
  125.00   35.31    5.00   0.0000000
  125.00   35.31   15.00   0.0000000
  125.00   35.31   25.00   0.0000000
  125.00   35.31   35.00   0.0000000
  125.00   35.31   45.00   0.0000000
  125.00   35.31   55.00   0.0000000
  125.00   45.22    5.00   0.0000000
  125.00   45.22   15.00   0.0000000
  125.00   45.22   25.00   0.0000000
  125.00   45.22   35.00   0.0000000
  125.00   45.22   45.00   0.0000000
  125.00   45.22   55.00   0.0000000
  125.00   55.15    5.00   0.0000000
  125.00   55.15   15.00   0.0000000
  125.00   55.15   25.00   0.0000000
  125.00   55.15   35.00   0.0000000
  125.00   55.15   45.00   0.0000000
  125.00   55.15   55.00   0.0000000
  125.00   65.10    5.00   0.0000000
  125.00   65.10   15.00   0.0000000
  125.00   65.10   25.00   0.0000000
  125.00   65.10   35.00   0.0000000
  125.00   65.10   45.00   0.0000000
  125.00   65.10   55.00   0.0000000
  125.00   75.06    5.00   0.0000000
  125.00   75.06   15.00   0.0000000
  125.00   75.06   25.00   0.0000000
  125.00   75.06   35.00   0.0000000
  125.00   75.06   45.00   0.0000000
  125.00   75.06   55.00   0.0000000
  125.00   85.02    5.00   0.0000000
  125.00   85.02   15.00   0.0000000
  125.00   85.02   25.00   0.0000000
  125.00   85.02   35.00   0.0000000
  125.00   85.02   45.00   0.0000000
  125.00   85.02   55.00   0.0000000
 -103.39   90.28   66.01   0.0002171
  -89.74   89.16   64.95   0.0002559
  -76.20   88.01   63.60   0.0002246
  -66.03   87.43   62.35   0.0001976
 -119.64   91.94  127.14   0.0001940
 -113.34   91.54  126.60   0.0002013
 -101.93   85.79   73.17   0.0006234
  -89.91   83.21   71.04   0.0007158
  -78.05   81.25   68.47   0.0005818
  -67.59   79.84   65.81   0.0004853
 -119.72   90.29  135.30   0.0004992
 -112.38   88.41  134.54   0.0005592
 -102.35   80.45   81.21   0.0006627
  -90.77   76.42   77.89   0.0007768
  -78.74   73.11   73.69   0.0004826
  -68.27   70.94   69.42   0.0004112
 -120.65   88.07  144.61   0.0004645
 -113.43   84.95  143.53   0.0004851
 -104.58   75.34   89.80   0.0003061
  -90.62   68.62   84.24   0.0001697
  135.00   35.31   25.00   0.0000000
  135.00   35.31   35.00   0.0000000
 -124.05   87.52  153.76   0.0000680
 -119.59   84.55  153.38   0.0000970
  135.00   45.22    5.00   0.0000000
  135.00   45.22   15.00   0.0000000
  135.00   45.22   25.00   0.0000000
  135.00   45.22   35.00   0.0000000
  135.00   45.22   45.00   0.0000000
  135.00   45.22   55.00   0.0000000
  135.00   55.15    5.00   0.0000000
  135.00   55.15   15.00   0.0000000
  135.00   55.15   25.00   0.0000000
  135.00   55.15   35.00   0.0000000
  135.00   55.15   45.00   0.0000000
  135.00   55.15   55.00   0.0000000
  135.00   65.10    5.00   0.0000000
  135.00   65.10   15.00   0.0000000
  135.00   65.10   25.00   0.0000000
  135.00   65.10   35.00   0.0000000
  135.00   65.10   45.00   0.0000000
  135.00   65.10   55.00   0.0000000
  135.00   75.06    5.00   0.0000000
  135.00   75.06   15.00   0.0000000
  135.00   75.06   25.00   0.0000000
  135.00   75.06   35.00   0.0000000
  135.00   75.06   45.00   0.0000000
  135.00   75.06   55.00   0.0000000
  135.00   85.02    5.00   0.0000000
  135.00   85.02   15.00   0.0000000
  135.00   85.02   25.00   0.0000000
  135.00   85.02   35.00   0.0000000
  135.00   85.02   45.00   0.0000000
  135.00   85.02   55.00   0.0000000
  -89.65   90.10   65.74   0.0002482
  -76.16   88.74   64.59   0.0002260
  -66.03   87.98   63.45   0.0002075
 -119.56   93.13  127.33   0.0001958
 -113.27   92.72  126.94   0.0002082
 -102.58   91.56  126.51   0.0002255
  -89.77   85.47   72.82   0.0007499
  -77.97   82.90   70.63   0.0006270
  -68.08   81.25   68.39   0.0005677
 -119.35   92.91  135.78   0.0005458
 -112.03   90.96  135.36   0.0005936
 -100.95   88.17  134.38   0.0007015
  -90.57   79.89   80.75   0.0009231
  -79.35   76.00   77.41   0.0007745
  -69.49   73.24   73.85   0.0006602
 -119.19   92.20  145.34   0.0007022
 -111.35   88.61  144.68   0.0007921
 -101.19   84.12  143.16   0.0009152
  -91.88   74.08   88.93   0.0006827
  -80.60   68.63   84.24   0.0004470
 -125.19   95.33  155.35   0.0004496
 -119.80   91.73  155.12   0.0005077
 -112.03   86.38  154.28   0.0005738
 -102.32   80.07  152.24   0.0008091
  -93.17   67.66   97.01   0.0002275
 -128.31   98.98  164.79   0.0001521
 -125.42   96.47  165.02   0.0001726
 -121.31   92.50  164.95   0.0002059
 -113.28   84.48  164.04   0.0003032
 -103.74   75.85  161.43   0.0003904
  145.00   55.15    5.00   0.0000000
  145.00   55.15   15.00   0.0000000
  145.00   55.15   25.00   0.0000000
 -123.36   95.48  174.55   0.0000633
 -114.57   82.50  173.76   0.0001275
 -103.46   68.98  169.67   0.0000965
  145.00   65.10    5.00   0.0000000
  145.00   65.10   15.00   0.0000000
  145.00   65.10   25.00   0.0000000
  145.00   65.10   35.00   0.0000000
  145.00   65.10   45.00   0.0000000
  145.00   65.10   55.00   0.0000000
  145.00   75.06    5.00   0.0000000
  145.00   75.06   15.00   0.0000000
  145.00   75.06   25.00   0.0000000
  145.00   75.06   35.00   0.0000000
  145.00   75.06   45.00   0.0000000
  145.00   75.06   55.00   0.0000000
  145.00   85.02    5.00   0.0000000
  145.00   85.02   15.00   0.0000000
  145.00   85.02   25.00   0.0000000
  145.00   85.02   35.00   0.0000000
  145.00   85.02   45.00   0.0000000
  145.00   85.02   55.00   0.0000000
  -76.10   89.65   65.45   0.0002200
  -65.99   88.72   64.44   0.0002086
 -119.50   94.55  127.27   0.0002027
 -113.19   93.95  127.07   0.0002082
 -102.48   92.74  126.88   0.0002312
  -89.56   91.18  126.36   0.0002541
  -78.43   85.22   72.59   0.0006695
  -68.01   82.91   70.53   0.0006028
 -118.89   95.71  135.80   0.0006095
 -111.04   93.61  135.73   0.0006194
 -100.60   90.73  135.27   0.0007035
  -89.48   87.81  134.19   0.0008000
  -79.60   79.56   80.47   0.0008946
  -70.07   76.27   77.58   0.0008637
 -118.02   96.45  145.45   0.0009022
 -109.79   92.64  145.35   0.0009234
 -100.38   88.16  144.58   0.0011082
  -89.94   83.59  142.90   0.0010714
  -81.67   74.07   88.86   0.0008428
  -72.53   69.47   85.03   0.0007466
 -117.11   97.03  155.33   0.0008611
 -109.24   91.56  155.15   0.0009225
 -100.56   85.48  154.08   0.0010538
  -91.09   79.40  151.91   0.0010075
  -84.02   68.17   97.44   0.0005214
 -122.19  103.22  164.95   0.0005096
 -116.06   97.50  165.31   0.0005702
 -108.90   90.34  165.00   0.0006588
 -101.23   82.80  163.68   0.0007043
  -92.98   75.42  161.23   0.0006365
  -88.28   63.33  107.06   0.0002389
 -120.42  104.90  174.99   0.0002570
 -115.16   97.84  175.31   0.0002991
 -109.11   89.08  174.91   0.0003558
 -102.56   80.01  173.44   0.0003443
  -95.60   71.15  170.83   0.0002889
 -122.29  112.99 -175.05   0.0001166
 -118.66  106.55 -174.91   0.0001329
 -114.39   97.20 -174.65   0.0001545
 -109.80   87.26 -175.13   0.0001620
 -104.82   77.27 -176.52   0.0001652
  -99.41   67.36 -178.95   0.0001331
 -118.80  115.28 -165.02   0.0000750
 -116.42  106.86 -164.67   0.0000967
 -113.64   96.16 -164.64   0.0001063
 -110.59   85.72 -165.17   0.0001021
 -108.02   75.19 -166.14   0.0000955
 -104.67   65.27 -167.86   0.0000752
 -115.75  117.31 -154.76   0.0000502
 -114.46  105.96 -154.57   0.0000621
 -114.01   95.25 -154.75   0.0000610
 -113.34   84.42 -154.96   0.0000576
 -112.05   73.56 -155.44   0.0000524
  155.00   85.02   55.00   0.0000000
  -65.93   89.66   65.30   0.0002034
 -119.44   95.79  127.04   0.0002034
 -113.11   95.20  126.99   0.0002150
 -102.39   93.99  127.03   0.0002305
  -89.47   92.37  126.78   0.0002585
  -76.03   90.72  126.14   0.0002244
  -67.81   84.94   72.36   0.0006324
 -118.54   98.40  135.36   0.0006227
 -110.66   96.33  135.68   0.0006606
 -100.23   93.43  135.71   0.0007064
  -89.13   90.37  135.15   0.0007805
  -78.15   87.55  134.02   0.0007150
  -69.64   79.52   80.38   0.0009036
 -117.08  100.64  144.87   0.0010100
 -108.84   96.94  145.39   0.0010238
  -98.94   92.32  145.34   0.0011074
  -89.27   87.83  144.47   0.0011999
  -78.98   83.25  142.70   0.0010124
  -71.96   74.09   88.83   0.0009307
 -115.06  102.63  154.75   0.0009806
 -107.45   97.31  155.31   0.0010520
  -98.50   91.14  155.12   0.0011443
  -89.79   85.15  153.97   0.0011106
  -80.56   79.09  151.76   0.0010293
 -119.54  110.22  163.65   0.0006428
 -112.84  104.21  164.81   0.0007047
 -105.56   97.19  165.36   0.0007507
  -98.30   89.87  164.97   0.0007688
  -90.78   82.56  163.61   0.0007407
  -82.86   75.24  161.17   0.0007168
 -116.23  112.46  174.07   0.0003455
 -110.34  105.36  175.02   0.0003782
 -104.69   97.09  175.36   0.0003974
  -98.70   88.40  174.87   0.0003909
  -92.36   79.78  173.40   0.0003804
  -85.96   71.49  170.98   0.0003677
 -112.63  114.15 -175.41   0.0001772
 -108.02  105.88 -174.76   0.0001934
 -103.93   96.45 -174.62   0.0001906
  -99.56   86.86 -175.16   0.0001901
  -94.84   77.56 -176.49   0.0002005
  -90.09   68.60 -178.63   0.0001837
 -108.86  115.18 -164.94   0.0001120
 -105.81  105.83 -164.56   0.0001311
 -102.91   95.94 -164.62   0.0001414
 -100.22   85.84 -165.22   0.0001386
  -97.72   75.88 -166.23   0.0001329
  -95.09   66.39 -167.79   0.0001151
 -105.07  115.60 -154.41   0.0000804
 -103.19  105.65 -154.28   0.0001047
 -102.59   95.30 -154.70   0.0001019
 -101.62   84.93 -155.22   0.0000963
 -100.82   74.82 -155.88   0.0000953
 -101.00   65.16 -156.98   0.0000774
 -119.39   96.83  126.62   0.0002002
 -113.06   96.46  126.70   0.0002139
 -102.31   95.27  126.98   0.0002364
  -89.38   93.65  127.01   0.0002567
  -75.94   91.92  126.64   0.0002290
  -65.83   90.76  126.00   0.0002064
 -118.27  101.01  134.47   0.0006353
 -110.33   99.03  135.17   0.0006551
  -99.88   96.18  135.71   0.0007288
  -88.76   93.08  135.67   0.0007688
  -77.80   90.11  135.05   0.0006962
  -67.49   87.30  133.82   0.0006592
 -116.30  104.75  143.60   0.0009473
 -107.97  101.21  144.75   0.0010565
  -98.00   96.64  145.45   0.0011298
  -88.33   92.07  145.30   0.0011499
  -78.15   87.30  144.29   0.0011119
  -68.93   83.24  142.59   0.0009605
 -113.52  108.17  153.27   0.0010134
 -105.75  103.08  154.63   0.0010245
  -96.72   96.96  155.36   0.0011283
  -88.05   90.87  155.09   0.0011368
  -79.44   84.96  153.90   0.0010609
  -70.89   79.40  151.80   0.0010079
 -110.21  111.03  163.35   0.0007181
 -102.74  104.31  164.83   0.0007237
  -95.43   97.05  165.36   0.0007408
  -87.99   89.61  164.94   0.0007539
  -80.43   82.06  163.50   0.0007346
  -73.15   75.62  161.20   0.0007239
 -106.32  113.27  173.80   0.0003787
 -100.50  105.34  174.99   0.0003880
  -94.18   96.92  175.39   0.0003920
  -88.41   88.07  174.85   0.0004014
  -82.22   79.80  173.36   0.0003962
  -76.20   72.03  170.95   0.0003762
 -102.38  114.66 -175.56   0.0002001
  -97.73  105.84 -174.69   0.0002090
  -93.43   96.42 -174.59   0.0002076
  -88.96   86.96 -175.22   0.0002078
  -84.79   77.61 -176.52   0.0002194
  -80.15   69.04 -178.81   0.0001997
  -98.35  115.41 -164.84   0.0001301
  -95.50  105.82 -164.49   0.0001530
  -92.36   95.97 -164.59   0.0001652
  -90.27   85.77 -165.22   0.0001579
  -87.21   76.11 -166.40   0.0001581
  -85.11   66.63 -168.17   0.0001361
  -94.28  115.59 -154.11   0.0000916
  -92.70  105.64 -154.17   0.0001208
  -92.04   95.34 -154.67   0.0001212
  -91.09   85.01 -155.29   0.0001158
  -90.41   74.94 -156.01   0.0001124
  -90.46   65.28 -157.38   0.0000924
 -113.49   97.54  126.17   0.0002086
 -102.97   96.40  126.68   0.0002347
  -89.31   94.97  127.03   0.0002625
  -75.84   93.24  126.95   0.0002275
  -65.70   92.01  126.52   0.0002102
 -119.39   98.04 -174.05   0.0002015
 -110.09  101.65  134.21   0.0006538
  -99.59   98.93  135.24   0.0007070
  -88.40   95.87  135.75   0.0007795
  -76.81   92.61  135.60   0.0006844
  -67.08   89.94  134.90   0.0006266
 -118.12  103.51 -166.90   0.0006409
 -107.27  105.36  143.41   0.0009397
  -97.74  101.13  144.78   0.0011062
  -87.32   96.36  145.45   0.0011452
  -77.19   91.62  145.22   0.0010256
  108.06  101.30  -84.68   0.0009667
 -115.79  108.70 -158.41   0.0009270
 -104.27  108.77  153.08   0.0009739
  -95.04  102.80  154.76   0.0010252
  -86.16   96.68  155.38   0.0010864
   97.32   97.33  -95.34   0.0010558
  105.40  102.97  -94.65   0.0009704
 -112.50  113.53 -149.23   0.0009480
 -100.58  111.60  163.23   0.0006759
  -92.86  104.46  164.83   0.0006831
   88.29   89.87 -104.99   0.0007128
   95.86   97.37 -105.36   0.0007259
  102.87  104.38 -104.76   0.0006878
 -108.15  117.80 -139.30   0.0006592
  -96.35  113.86  173.81   0.0003559
   82.10   80.07 -113.38   0.0003697
   88.47   88.58 -114.89   0.0003849
   94.51   97.14 -115.40   0.0003970
  100.18  105.33 -115.02   0.0003780
  105.95  112.79 -113.79   0.0003420
   79.75   68.78 -121.33   0.0001939
   84.57   77.83 -123.48   0.0002110
   88.93   87.36 -124.80   0.0002111
   93.31   96.74 -125.43   0.0002108
   97.79  105.70 -125.28   0.0002181
  102.33  114.10 -124.62   0.0001960
   84.28   66.44 -132.02   0.0001283
   87.22   76.15 -133.65   0.0001541
   90.24   86.09 -134.79   0.0001684
   92.86   96.09 -135.38   0.0001532
   95.11  105.86 -135.61   0.0001566
   98.64  114.81 -135.85   0.0001384
   89.62   64.91 -143.19   0.0000858
   90.68   74.92 -144.08   0.0001103
   91.12   85.28 -144.72   0.0001246
   92.67   95.54 -145.28   0.0001072
   93.01  105.61 -145.77   0.0001042
   95.20  115.03 -146.90   0.0000977
 -102.95   97.69  126.19   0.0002268
  -89.26   96.10  126.82   0.0002604
  -75.75   94.66  127.05   0.0002314
  -65.19   93.22  126.82   0.0002087
 -119.44   99.18 -174.93   0.0002044
 -113.50   98.73 -174.53   0.0002080
 -100.01  101.72  134.23   0.0006836
   89.44   90.50  -75.17   0.0007210
  101.02   93.64  -75.74   0.0006910
  110.84   96.40  -75.64   0.0006257
 -118.21  105.77 -168.81   0.0005942
 -110.53  104.21 -167.30   0.0006371
   79.11   83.35  -82.73   0.0009705
   89.54   87.83  -84.48   0.0011361
   99.73   92.54  -85.36   0.0010601
  108.58   96.82  -85.40   0.0009679
  116.49  100.42  -84.92   0.0009422
   69.15   79.38  -20.30   0.0008880
   81.07   79.53  -91.94   0.0009706
   90.03   85.28  -94.01   0.0010050
   98.72   91.26  -95.15   0.0010240
  107.25   97.17  -95.32   0.0009506
  114.57  102.28  -94.82   0.0008678
   71.74   74.09  -28.86   0.0008915
   83.02   75.24 -101.26   0.0006374
   91.02   82.73 -103.67   0.0006481
   98.53   90.05 -105.00   0.0006649
  105.92   97.26 -105.33   0.0006336
  112.38  103.72 -104.91   0.0005809
   74.82   68.92  -37.85   0.0005994
   86.02   71.78 -111.07   0.0003336
   92.75   80.03 -113.52   0.0003427
   99.02   88.70 -114.92   0.0003494
  104.66   97.11 -115.36   0.0003433
  110.22  104.63 -115.12   0.0003107
   79.06   64.01  -47.57   0.0003094
   90.05   68.60 -121.43   0.0001781
   94.71   77.98 -123.48   0.0001933
   99.34   87.44 -124.82   0.0001868
  103.97   96.56 -125.36   0.0001833
  108.14  105.21 -125.32   0.0001869
   84.62   60.03  -58.24   0.0001795
   94.64   66.25 -132.17   0.0001171
   97.55   76.13 -133.72   0.0001366
  100.47   86.16 -134.79   0.0001454
  102.94   96.14 -135.35   0.0001340
  105.59  105.63 -135.54   0.0001396
   91.43   57.01  -69.72   0.0001267
  100.13   64.76 -143.40   0.0000777
  101.28   74.85 -144.22   0.0000922
  101.81   85.26 -144.76   0.0001028
  103.19   95.54 -145.20   0.0000925
  104.04  105.58 -145.48   0.0000899
   99.54   55.37  -81.66   0.0000868
  -89.23   97.53  126.42   0.0002503
  -74.95   95.96  126.96   0.0002267
  -64.67   94.66  126.95   0.0002112
 -119.53  100.12 -175.99   0.0002043
 -113.97   99.75 -175.45   0.0002105
 -103.70   98.84 -174.55   0.0002237
   89.74   87.90  -74.23   0.0007595
  100.78   90.80  -75.30   0.0006860
  110.76   93.53  -75.72   0.0006408
  118.44   95.52  -75.80   0.0005938
   67.64   82.89  -10.50   0.0006049
   77.95   85.02  -12.48   0.0006902
   90.35   83.68  -82.99   0.0010064
  100.69   88.23  -84.64   0.0010384
  109.60   92.51  -85.35   0.0009428
  117.48   96.12  -85.50   0.0008682
   69.60   76.03  -17.44   0.0009064
   79.73   79.53  -20.51   0.0009286
   91.55   79.77  -92.08   0.0009462
  100.47   85.54  -94.10   0.0009209
  109.17   91.44  -95.15   0.0008758
  116.51   96.43  -95.41   0.0008002
   72.14   69.20  -24.94   0.0007679
   81.80   73.97  -28.92   0.0008656
   93.52   75.59 -101.43   0.0005837
  101.75   83.04 -103.82   0.0005768
  108.95   90.29 -105.01   0.0005384
  115.52   96.68 -105.38   0.0004912
   75.84   62.84  -33.30   0.0004740
   84.79   68.80  -37.89   0.0005387
   96.40   71.66 -111.20   0.0002822
  103.35   80.40 -113.66   0.0002812
  109.30   89.07 -114.91   0.0002720
  114.76   96.77 -115.36   0.0002527
   81.09   56.40  -42.65   0.0002355
   88.72   63.78  -47.48   0.0002577
  100.11   68.50 -121.44   0.0001425
  105.40   78.00 -123.65   0.0001507
  110.28   87.46 -124.88   0.0001392
  114.41   96.73 -125.29   0.0001357
   88.49   50.93  -53.23   0.0001389
   94.29   59.02  -58.16   0.0001442
  105.14   65.82 -132.37   0.0000946
  107.83   76.12 -133.77   0.0001081
  110.70   86.46 -134.79   0.0001092
  113.74   96.45 -135.25   0.0001040
  115.93  105.13 -135.47   0.0001091
  100.74   56.15  -69.62   0.0001004
  110.65   63.89 -143.64   0.0000582
  111.39   74.68 -144.22   0.0000743
  112.56   85.35 -144.79   0.0000756
  113.54   95.91 -145.12   0.0000671
  113.79  106.07 -145.48   0.0000731
  108.73   55.01  -82.17   0.0000650
  104.04   91.90  -66.61   0.0002207
  114.33   93.05  -66.88   0.0002090
 -119.69  100.97 -177.29   0.0002128
 -114.46  100.79 -176.54   0.0002073
 -104.53  100.16 -175.50   0.0002227
   89.82   90.52   -5.75   0.0002409
  101.14   88.19  -74.42   0.0006950
  111.19   90.80  -75.31   0.0006247
  118.88   92.85  -75.78   0.0005877
   67.77   81.12   -8.33   0.0006033
   78.73   83.16  -10.80   0.0006557
   90.01   85.49  -12.87   0.0007464
  101.53   84.15  -83.25   0.0009143
  110.60   88.29  -84.62   0.0009026
  118.54   91.86  -85.37   0.0008168
   69.72   73.29  -14.04   0.0008058
   80.06   76.21  -17.67   0.0009148
   90.95   79.90  -20.86   0.0009591
  102.50   80.15  -92.33   0.0008243
  111.52   85.98  -94.22   0.0007298
  118.57   90.74  -95.16   0.0006890
   71.89   65.18  -20.13   0.0006549
   82.35   69.44  -25.13   0.0007061
   92.65   74.43  -29.25   0.0008404
  104.45   76.33 -101.74   0.0004677
  112.63   83.81 -103.94   0.0003970
  118.91   89.95 -104.99   0.0003575
   75.12   57.11  -26.88   0.0003273
   84.94   62.24  -32.87   0.0003694
   95.13   68.89  -38.03   0.0004676
  107.00   72.55 -111.42   0.0001983
  114.66   82.08 -113.90   0.0001646
  120.03   89.74 -114.83   0.0001452
  123.47   94.28 -115.33   0.0001390
   87.87   54.43  -40.76   0.0001442
   98.36   62.96  -47.23   0.0001844
  110.14   67.88 -121.35   0.0000870
  117.26   81.00 -124.02   0.0000805
  121.55   90.67 -124.54   0.0000660
  123.28   94.52 -124.59   0.0000665
   93.38   47.82  -50.43   0.0000687
  101.42   55.51  -56.24   0.0000773
  112.41   60.34 -130.82   0.0000540
  118.82   79.21 -133.91   0.0000582
 -145.00   75.06   25.00   0.0000000
 -145.00   75.06   35.00   0.0000000
 -145.00   75.06   45.00   0.0000000
 -145.00   75.06   55.00   0.0000000
 -145.00   85.02    5.00   0.0000000
 -145.00   85.02   15.00   0.0000000
 -145.00   85.02   25.00   0.0000000
 -145.00   85.02   35.00   0.0000000
 -145.00   85.02   45.00   0.0000000
 -145.00   85.02   55.00   0.0000000
  114.08   91.61  -66.59   0.0002086
  119.47   92.22  -66.84   0.0002118
   65.07   87.68   -2.26   0.0002066
   75.56   88.25   -3.51   0.0002246
   89.88   89.34   -4.96   0.0002536
  103.41   90.62   -6.04   0.0002237
  111.58   88.21  -74.47   0.0006324
  119.31   90.17  -75.31   0.0005686
   67.78   79.80   -5.91   0.0005866
   78.82   81.43   -8.66   0.0006442
   90.21   83.38  -11.12   0.0007057
  101.44   85.78  -13.12   0.0006772
  112.05   84.35  -83.33   0.0007697
  119.62   87.60  -84.60   0.0007638
   69.09   70.99   -9.94   0.0007331
   80.11   73.46  -14.26   0.0008019
   91.30   76.57  -18.10   0.0009496
  102.18   80.39  -21.21   0.0008410
  113.63   80.83  -92.57   0.0005813
  120.66   85.22  -94.12   0.0005203
   70.59   62.00  -14.21   0.0004984
   81.19   64.97  -19.87   0.0005562
   93.14   69.64  -25.48   0.0006787
  104.12   75.13  -29.78   0.0006662
  117.35   78.79 -102.45   0.0002219
  122.59   83.59 -103.74   0.0001919
  125.90   86.47 -104.50   0.0001788
   80.63   55.54  -24.18   0.0001900
   95.05   62.31  -32.91   0.0002759
  107.11   70.30  -38.87   0.0002861
 -135.00   55.15    5.00   0.0000000
 -135.00   55.15   15.00   0.0000000
 -135.00   55.15   25.00   0.0000000
 -135.00   55.15   35.00   0.0000000
   89.95   50.26  -35.02   0.0000521
  110.73   65.67  -48.10   0.0000694
 -135.00   65.10    5.00   0.0000000
 -135.00   65.10   15.00   0.0000000
 -135.00   65.10   25.00   0.0000000
 -135.00   65.10   35.00   0.0000000
 -135.00   65.10   45.00   0.0000000
 -135.00   65.10   55.00   0.0000000
 -135.00   75.06    5.00   0.0000000
 -135.00   75.06   15.00   0.0000000
 -135.00   75.06   25.00   0.0000000
 -135.00   75.06   35.00   0.0000000
 -135.00   75.06   45.00   0.0000000
 -135.00   75.06   55.00   0.0000000
 -135.00   85.02    5.00   0.0000000
 -135.00   85.02   15.00   0.0000000
 -135.00   85.02   25.00   0.0000000
 -135.00   85.02   35.00   0.0000000
 -135.00   85.02   45.00   0.0000000
 -135.00   85.02   55.00   0.0000000
  119.58   90.87  -66.62   0.0002049
   65.52   87.18   -1.14   0.0002094
   76.32   87.71   -2.50   0.0002292
   89.93   88.37   -4.03   0.0002560
  103.50   89.51   -5.32   0.0002304
  113.77   90.47   -6.06   0.0002069
  119.72   87.48  -74.44   0.0005762
   67.70   78.96   -3.30   0.0005657
   78.16   79.83   -6.07   0.0006183
   90.30   81.61   -9.04   0.0007012
  101.66   83.65  -11.44   0.0006367
  111.90   85.82  -13.20   0.0006083
  120.56   83.57  -83.17   0.0006422
   68.61   69.69   -5.67   0.0006715
   79.26   71.08  -10.09   0.0007173
   91.41   73.77  -14.77   0.0008502
  102.59   77.02  -18.54   0.0008016
  113.31   80.69  -21.47   0.0006842
  122.49   79.93  -92.28   0.0003603
   67.85   59.84   -7.02   0.0003285
   78.26   61.49  -13.02   0.0003738
   92.77   65.45  -20.67   0.0005211
  105.83   70.79  -26.64   0.0004513
  116.92   76.60  -30.59   0.0003905
 -125.00   45.22    5.00   0.0000000
 -125.00   45.22   15.00   0.0000000
 -125.00   45.22   25.00   0.0000000
   89.89   55.44  -23.66   0.0001029
  112.59   66.98  -36.47   0.0000944
  122.52   74.91  -40.23   0.0000579
 -125.00   55.15    5.00   0.0000000
 -125.00   55.15   15.00   0.0000000
 -125.00   55.15   25.00   0.0000000
 -125.00   55.15   35.00   0.0000000
 -125.00   55.15   45.00   0.0000000
 -125.00   55.15   55.00   0.0000000
 -125.00   65.10    5.00   0.0000000
 -125.00   65.10   15.00   0.0000000
 -125.00   65.10   25.00   0.0000000
 -125.00   65.10   35.00   0.0000000
 -125.00   65.10   45.00   0.0000000
 -125.00   65.10   55.00   0.0000000
 -125.00   75.06    5.00   0.0000000
 -125.00   75.06   15.00   0.0000000
 -125.00   75.06   25.00   0.0000000
 -125.00   75.06   35.00   0.0000000
 -125.00   75.06   45.00   0.0000000
 -125.00   75.06   55.00   0.0000000
 -125.00   85.02    5.00   0.0000000
 -125.00   85.02   15.00   0.0000000
 -125.00   85.02   25.00   0.0000000
 -125.00   85.02   35.00   0.0000000
 -125.00   85.02   45.00   0.0000000
 -125.00   85.02   55.00   0.0000000
   65.98   87.07    0.01   0.0002079
   76.34   87.26   -1.32   0.0002311
   89.96   87.64   -2.97   0.0002573
  103.57   88.58   -4.44   0.0002318
  113.86   89.39   -5.37   0.0002122
  119.71   89.81   -6.10   0.0001994
   67.55   78.60   -0.57   0.0005796
   78.05   78.98   -3.46   0.0005978
   90.31   80.24   -6.67   0.0006721
  102.46   81.75   -9.56   0.0006319
  112.68   83.64  -11.65   0.0005712
  120.03   85.16  -13.10   0.0005491
   67.03   68.91   -0.69   0.0005620
   78.80   69.74   -5.81   0.0006573
   91.20   71.41  -10.92   0.0007722
  103.39   74.17  -15.53   0.0006917
  114.30   77.39  -19.04   0.0006338
  121.26   79.84  -21.09   0.0005589
   64.75   59.26    0.56   0.0001963
   72.65   59.42   -4.12   0.0002052
   91.58   62.19  -14.88   0.0003576
  108.05   67.39  -23.24   0.0002700
  119.38   72.54  -27.88   0.0002113
  123.77   74.76  -29.51   0.0002049
 -115.00   45.22    5.00   0.0000000
 -115.00   45.22   15.00   0.0000000
 -115.00   45.22   25.00   0.0000000
 -115.00   45.22   35.00   0.0000000
 -115.00   45.22   45.00   0.0000000
 -115.00   45.22   55.00   0.0000000
 -115.00   55.15    5.00   0.0000000
 -115.00   55.15   15.00   0.0000000
 -115.00   55.15   25.00   0.0000000
 -115.00   55.15   35.00   0.0000000
 -115.00   55.15   45.00   0.0000000
 -115.00   55.15   55.00   0.0000000
 -115.00   65.10    5.00   0.0000000
 -115.00   65.10   15.00   0.0000000
 -115.00   65.10   25.00   0.0000000
 -115.00   65.10   35.00   0.0000000
 -115.00   65.10   45.00   0.0000000
 -115.00   65.10   55.00   0.0000000
 -115.00   75.06    5.00   0.0000000
 -115.00   75.06   15.00   0.0000000
 -115.00   75.06   25.00   0.0000000
 -115.00   75.06   35.00   0.0000000
 -115.00   75.06   45.00   0.0000000
 -115.00   75.06   55.00   0.0000000
 -115.00   85.02    5.00   0.0000000
 -115.00   85.02   15.00   0.0000000
 -115.00   85.02   25.00   0.0000000
 -115.00   85.02   35.00   0.0000000
 -115.00   85.02   45.00   0.0000000
 -115.00   85.02   55.00   0.0000000
   76.35   87.05   -0.11   0.0002297
   89.98   87.45   -1.82   0.0002575
  103.62   87.86   -3.43   0.0002315
  113.94   88.49   -4.51   0.0002144
  119.82   88.80   -5.40   0.0002036
   66.02   87.08   61.22   0.0002056
   77.91   78.61   -0.73   0.0006174
   90.24   79.07   -4.09   0.0006579
  102.50   80.31   -7.26   0.0005978
  112.80   81.82   -9.66   0.0005714
  120.23   83.11  -11.37   0.0005161
   67.38   78.72   62.17   0.0005544
   77.53   69.01   -1.00   0.0005667
   90.85   69.94   -6.73   0.0007368
  103.98   71.87  -12.08   0.0006037
  114.98   74.51  -16.08   0.0005438
  121.67   76.38  -18.43   0.0005217
   65.83   69.17   64.10   0.0004997
   67.98   59.56    4.35   0.0001062
   90.38   60.15   -8.71   0.0002259
  112.96   65.52  -20.75   0.0001343
  121.08   68.76  -24.38   0.0001044
  124.18   70.13  -25.76   0.0000986
   61.49   60.24   68.14   0.0001003
 -105.00   45.22    5.00   0.0000000
 -105.00   45.22   15.00   0.0000000
 -105.00   45.22   25.00   0.0000000
 -105.00   45.22   35.00   0.0000000
 -105.00   45.22   45.00   0.0000000
 -105.00   45.22   55.00   0.0000000
 -105.00   55.15    5.00   0.0000000
 -105.00   55.15   15.00   0.0000000
 -105.00   55.15   25.00   0.0000000
 -105.00   55.15   35.00   0.0000000
 -105.00   55.15   45.00   0.0000000
 -105.00   55.15   55.00   0.0000000
 -105.00   65.10    5.00   0.0000000
 -105.00   65.10   15.00   0.0000000
 -105.00   65.10   25.00   0.0000000
 -105.00   65.10   35.00   0.0000000
 -105.00   65.10   45.00   0.0000000
 -105.00   65.10   55.00   0.0000000
 -105.00   75.06    5.00   0.0000000
 -105.00   75.06   15.00   0.0000000
 -105.00   75.06   25.00   0.0000000
 -105.00   75.06   35.00   0.0000000
 -105.00   75.06   45.00   0.0000000
 -105.00   75.06   55.00   0.0000000
 -105.00   85.02    5.00   0.0000000
 -105.00   85.02   15.00   0.0000000
 -105.00   85.02   25.00   0.0000000
 -105.00   85.02   35.00   0.0000000
 -105.00   85.02   45.00   0.0000000
 -105.00   85.02   55.00   0.0000000
   89.99   87.22   -0.61   0.0002562
  103.66   87.36   -2.31   0.0002322
  114.00   87.79   -3.51   0.0002138
  119.92   88.00   -4.52   0.0002064
   66.06   87.33   62.40   0.0002104
   76.36   87.10   61.11   0.0002247
   90.13   78.83   -1.40   0.0006897
  102.45   79.29   -4.74   0.0005865
  112.82   80.36   -7.37   0.0005445
  120.35   81.23   -9.39   0.0005220
   67.24   79.32   64.85   0.0005334
   77.75   78.71   62.02   0.0005919
   90.34   69.04   -2.30   0.0006728
  103.69   70.21   -7.99   0.0005741
  115.31   72.11  -12.62   0.0004882
  121.68   73.50  -15.16   0.0004731
   65.16   70.29   68.51   0.0004940
   76.94   69.24   63.53   0.0005264
   90.06   59.27   -2.88   0.0001654
  115.66   63.50  -17.10   0.0000668
  -95.00   35.31   25.00   0.0000000
  -95.00   35.31   35.00   0.0000000
  -95.00   35.31   45.00   0.0000000
   64.65   61.27   71.74   0.0000625
  -95.00   45.22    5.00   0.0000000
  -95.00   45.22   15.00   0.0000000
  -95.00   45.22   25.00   0.0000000
  -95.00   45.22   35.00   0.0000000
  -95.00   45.22   45.00   0.0000000
  -95.00   45.22   55.00   0.0000000
  -95.00   55.15    5.00   0.0000000
  -95.00   55.15   15.00   0.0000000
  -95.00   55.15   25.00   0.0000000
  -95.00   55.15   35.00   0.0000000
  -95.00   55.15   45.00   0.0000000
  -95.00   55.15   55.00   0.0000000
  -95.00   65.10    5.00   0.0000000
  -95.00   65.10   15.00   0.0000000
  -95.00   65.10   25.00   0.0000000
  -95.00   65.10   35.00   0.0000000
  -95.00   65.10   45.00   0.0000000
  -95.00   65.10   55.00   0.0000000
  -95.00   75.06    5.00   0.0000000
  -95.00   75.06   15.00   0.0000000
  -95.00   75.06   25.00   0.0000000
  -95.00   75.06   35.00   0.0000000
  -95.00   75.06   45.00   0.0000000
  -95.00   75.06   55.00   0.0000000
  -95.00   85.02    5.00   0.0000000
  -95.00   85.02   15.00   0.0000000
  -95.00   85.02   25.00   0.0000000
  -95.00   85.02   35.00   0.0000000
  -95.00   85.02   45.00   0.0000000
  -95.00   85.02   55.00   0.0000000
  103.69   87.08   -1.13   0.0002314
  114.06   87.31   -2.41   0.0002143
  120.01   87.42   -3.51   0.0002044
   66.10   87.82   63.50   0.0002143
   76.37   87.38   62.30   0.0002296
   89.99   86.92   60.61   0.0002499
  102.35   78.72   -2.06   0.0006171
  112.75   79.32   -4.85   0.0005386
  120.33   79.88   -7.05   0.0005015
   67.15   80.37   67.37   0.0005527
   77.63   79.29   64.70   0.0005780
   89.99   78.60   61.35   0.0006612
  103.21   69.25   -3.61   0.0005362
  114.85   70.29   -8.53   0.0004972
   58.34   73.49   75.15   0.0004592
   64.69   72.10   72.61   0.0004887
   76.45   70.20   67.92   0.0005613
   89.85   69.04   62.19   0.0006525
  115.40   61.29  -11.77   0.0000587
  -85.00   35.31   15.00   0.0000000
  -85.00   35.31   25.00   0.0000000
  -85.00   35.31   35.00   0.0000000
   63.75   63.67   77.37   0.0000630
   90.49   59.21   62.52   0.0001588
  -85.00   45.22    5.00   0.0000000
  -85.00   45.22   15.00   0.0000000
  -85.00   45.22   25.00   0.0000000
  -85.00   45.22   35.00   0.0000000
  -85.00   45.22   45.00   0.0000000
  -85.00   45.22   55.00   0.0000000
  -85.00   55.15    5.00   0.0000000
  -85.00   55.15   15.00   0.0000000
  -85.00   55.15   25.00   0.0000000
  -85.00   55.15   35.00   0.0000000
  -85.00   55.15   45.00   0.0000000
  -85.00   55.15   55.00   0.0000000
  -85.00   65.10    5.00   0.0000000
  -85.00   65.10   15.00   0.0000000
  -85.00   65.10   25.00   0.0000000
  -85.00   65.10   35.00   0.0000000
  -85.00   65.10   45.00   0.0000000
  -85.00   65.10   55.00   0.0000000
  -85.00   75.06    5.00   0.0000000
  -85.00   75.06   15.00   0.0000000
  -85.00   75.06   25.00   0.0000000
  -85.00   75.06   35.00   0.0000000
  -85.00   75.06   45.00   0.0000000
  -85.00   75.06   55.00   0.0000000
  -85.00   85.02    5.00   0.0000000
  -85.00   85.02   15.00   0.0000000
  -85.00   85.02   25.00   0.0000000
  -85.00   85.02   35.00   0.0000000
  -85.00   85.02   45.00   0.0000000
  -85.00   85.02   55.00   0.0000000
  114.10   87.05   -1.23   0.0002134
  120.09   86.91   -2.47   0.0002081
   66.16   88.52   64.50   0.0002110
   76.39   87.89   63.42   0.0002335
   90.02   87.46   61.81   0.0002546
  103.71   87.04   60.09   0.0002247
  112.62   78.73   -2.18   0.0005753
   59.76   82.96   71.45   0.0005075
   67.17   81.83   69.66   0.0005392
   77.56   80.31   67.24   0.0006041
   89.87   79.08   64.05   0.0006479
  102.21   78.62   60.69   0.0005925
  114.20   69.18   -4.12   0.0005021
   58.34   76.38   78.42   0.0005083
   65.00   74.51   76.08   0.0005162
   76.14   71.86   72.02   0.0005908
   89.35   69.92   66.63   0.0007082
  102.63   69.02   60.92   0.0005439
  118.46   60.27   -8.11   0.0000895
   55.74   70.16   85.75   0.0000883
   58.60   68.87   84.48   0.0000922
   66.28   65.77   81.07   0.0001180
   90.20   60.02   68.33   0.0002011
  112.84   59.64   55.14   0.0000925
  -75.00   45.22    5.00   0.0000000
  -75.00   45.22   15.00   0.0000000
  -75.00   45.22   25.00   0.0000000
  -75.00   45.22   35.00   0.0000000
  -75.00   45.22   45.00   0.0000000
  -75.00   45.22   55.00   0.0000000
  -75.00   55.15    5.00   0.0000000
  -75.00   55.15   15.00   0.0000000
  -75.00   55.15   25.00   0.0000000
  -75.00   55.15   35.00   0.0000000
  -75.00   55.15   45.00   0.0000000
  -75.00   55.15   55.00   0.0000000
  -75.00   65.10    5.00   0.0000000
  -75.00   65.10   15.00   0.0000000
  -75.00   65.10   25.00   0.0000000
  -75.00   65.10   35.00   0.0000000
  -75.00   65.10   45.00   0.0000000
  -75.00   65.10   55.00   0.0000000
  -75.00   75.06    5.00   0.0000000
  -75.00   75.06   15.00   0.0000000
   -2.67   62.13  174.06   0.0000494
   -1.70   50.64  178.38   0.0000526
  -75.00   75.06   45.00   0.0000000
  -75.00   75.06   55.00   0.0000000
  -75.00   85.02    5.00   0.0000000
  -75.00   85.02   15.00   0.0000000
  -75.00   85.02   25.00   0.0000000
  -75.00   85.02   35.00   0.0000000
  -75.00   85.02   45.00   0.0000000
  -75.00   85.02   55.00   0.0000000
   60.43   89.69   66.22   0.0002075
   66.24   89.42   65.36   0.0002115
   76.43   88.62   64.43   0.0002288
   90.00   87.65   62.96   0.0002592
  103.74   87.24   61.31   0.0002284
  114.15   87.04   59.98   0.0002065
   59.98   85.17   73.10   0.0005509
   67.29   83.66   71.65   0.0005494
   77.58   81.76   69.54   0.0005888
   89.79   80.24   66.64   0.0006771
  102.08   78.99   63.41   0.0005844
  112.47   78.61   60.56   0.0005561
   58.69   79.73   81.12   0.0005472
   65.64   77.41   79.05   0.0006004
   76.70   74.16   75.48   0.0006383
   88.98   71.40   70.84   0.0007430
  102.05   69.53   65.41   0.0006225
  113.00   68.92   60.66   0.0005413
   56.18   74.73   89.47   0.0001833
   60.23   72.67   87.98   0.0001820
   71.27   67.58   83.50   0.0002341
   88.59   62.15   74.76   0.0003092
  108.37   59.35   63.46   0.0001741
  115.63   59.28   59.15   0.0001759
  -65.00   45.22    5.00   0.0000000
  -65.00   45.22   15.00   0.0000000
  -65.00   45.22   25.00   0.0000000
  -65.00   45.22   35.00   0.0000000
  -65.00   45.22   45.00   0.0000000
  -65.00   45.22   55.00   0.0000000
  -65.00   55.15    5.00   0.0000000
  -65.00   55.15   15.00   0.0000000
  -65.00   55.15   25.00   0.0000000
  -65.00   55.15   35.00   0.0000000
  -65.00   55.15   45.00   0.0000000
  -65.00   55.15   55.00   0.0000000
  -65.00   65.10    5.00   0.0000000
  -65.00   65.10   15.00   0.0000000
  -65.00   65.10   25.00   0.0000000
  -65.00   65.10   35.00   0.0000000
  -65.00   65.10   45.00   0.0000000
  -65.00   65.10   55.00   0.0000000
  -65.00   75.06    5.00   0.0000000
  -65.00   75.06   15.00   0.0000000
  -65.00   75.06   25.00   0.0000000
  -65.00   75.06   35.00   0.0000000
  -65.00   75.06   45.00   0.0000000
  -65.00   75.06   55.00   0.0000000
  -65.00   85.02    5.00   0.0000000
  -65.00   85.02   15.00   0.0000000
  -65.00   85.02   25.00   0.0000000
  -65.00   85.02   35.00   0.0000000
  -65.00   85.02   45.00   0.0000000
  -65.00   85.02   55.00   0.0000000
   66.33   90.50   66.06   0.0002102
   76.48   89.55   65.31   0.0002284
   90.02   88.38   64.02   0.0002525
  103.77   87.69   62.48   0.0002318
  114.64   87.13   61.12   0.0002094
   60.58   90.77  126.74   0.0002050
   67.52   85.80   73.29   0.0006002
   77.68   83.59   71.55   0.0005984
   89.79   81.62   69.01   0.0006550
  101.98   79.84   66.03   0.0006164
  112.34   78.97   63.28   0.0005523
   60.29   87.49  134.44   0.0005396
   66.61   80.74   81.48   0.0006540
   76.84   77.04   78.70   0.0007311
   88.79   73.55   74.67   0.0007738
  100.91   71.08   70.01   0.0006842
  111.88   69.54   65.40   0.0006394
   59.41   83.59  143.16   0.0006031
   63.05   76.61   90.59   0.0003408
   74.22   70.78   86.60   0.0003818
   87.39   65.42   80.57   0.0004431
  101.89   61.47   72.91   0.0003189
  112.24   59.85   66.94   0.0002917
   57.45   79.85  152.26   0.0003249
  -55.00   45.22    5.00   0.0000000
   66.00   67.93   96.93   0.0000652
   93.47   54.31   81.30   0.0000693
  -55.00   45.22   35.00   0.0000000
  -55.00   45.22   45.00   0.0000000
  -55.00   45.22   55.00   0.0000000
  -55.00   55.15    5.00   0.0000000
  -55.00   55.15   15.00   0.0000000
  -55.00   55.15   25.00   0.0000000
  -55.00   55.15   35.00   0.0000000
  -55.00   55.15   45.00   0.0000000
  -55.00   55.15   55.00   0.0000000
  -55.00   65.10    5.00   0.0000000
  -55.00   65.10   15.00   0.0000000
  -55.00   65.10   25.00   0.0000000
  -55.00   65.10   35.00   0.0000000
  -55.00   65.10   45.00   0.0000000
  -55.00   65.10   55.00   0.0000000
  -55.00   75.06    5.00   0.0000000
  -55.00   75.06   15.00   0.0000000
  -55.00   75.06   25.00   0.0000000
  -55.00   75.06   35.00   0.0000000
  -55.00   75.06   45.00   0.0000000
  -55.00   75.06   55.00   0.0000000
  -55.00   85.02    5.00   0.0000000
  -55.00   85.02   15.00   0.0000000
  -55.00   85.02   25.00   0.0000000
  -55.00   85.02   35.00   0.0000000
  -55.00   85.02   45.00   0.0000000
  -55.00   85.02   55.00   0.0000000
   75.80   90.56   66.08   0.0002272
   90.06   89.35   64.96   0.0002507
  104.55   88.20   63.49   0.0002221
  114.73   87.70   62.31   0.0002091
   60.73   92.19  126.91   0.0002130
   66.04   91.65  126.59   0.0002021
   77.87   85.75   73.22   0.0006483
   89.87   83.39   71.10   0.0006645
  101.96   81.14   68.45   0.0006004
  112.28   79.81   65.89   0.0005833
   60.70   90.02  135.36   0.0005392
   67.85   88.20  134.53   0.0005843
   77.86   80.40   81.19   0.0007663
   88.81   76.57   78.05   0.0008597
  100.67   73.12   73.93   0.0007285
  110.97   71.01   69.91   0.0007038
   60.35   87.64  144.59   0.0007106
   67.86   84.42  143.34   0.0007023
   75.92   75.15   89.75   0.0005514
   87.00   69.63   85.40   0.0005645
   99.01   64.94   79.74   0.0004704
  109.50   62.00   74.15   0.0004476
   59.33   85.24  154.11   0.0004617
   65.76   81.07  152.68   0.0005050
   72.46   70.47   98.99   0.0002134
   85.83   61.50   92.33   0.0002014
  101.03   54.85   82.96   0.0001419
   54.47   85.88  164.29   0.0001515
   57.33   83.57  163.69   0.0001580
   61.71   79.41  162.60   0.0001729
  -45.00   55.15    5.00   0.0000000
  -45.00   55.15   15.00   0.0000000
  -45.00   55.15   25.00   0.0000000
  -45.00   55.15   35.00   0.0000000
  -45.00   55.15   45.00   0.0000000
  -45.00   55.15   55.00   0.0000000
  -45.00   65.10    5.00   0.0000000
  -45.00   65.10   15.00   0.0000000
  -45.00   65.10   25.00   0.0000000
  -45.00   65.10   35.00   0.0000000
  -45.00   65.10   45.00   0.0000000
  -45.00   65.10   55.00   0.0000000
  -45.00   75.06    5.00   0.0000000
  -45.00   75.06   15.00   0.0000000
  -45.00   75.06   25.00   0.0000000
  -45.00   75.06   35.00   0.0000000
  -45.00   75.06   45.00   0.0000000
  -45.00   75.06   55.00   0.0000000
  -45.00   85.02    5.00   0.0000000
  -45.00   85.02   15.00   0.0000000
  -45.00   85.02   25.00   0.0000000
  -45.00   85.02   35.00   0.0000000
  -45.00   85.02   45.00   0.0000000
  -45.00   85.02   55.00   0.0000000
   90.07   90.51   65.75   0.0002423
  -75.33  100.27 -124.48   0.0002162
  -65.33  100.90 -123.44   0.0002029
  -60.08  101.04 -122.75   0.0002121
   65.81   93.11  126.88   0.0002017
   75.10   91.95  126.64   0.0002139
   90.04   85.50   72.85   0.0007147
  102.03   82.87   70.61   0.0006109
  112.32   81.11   68.31   0.0005627
   61.16   92.71  135.82   0.0005630
   68.26   90.81  135.34   0.0005787
   78.15   88.19  134.48   0.0006281
   89.15   79.92   80.82   0.0008704
  100.10   76.21   77.60   0.0008202
  110.34   73.30   74.01   0.0007347
   61.39   91.74  145.39   0.0007566
   68.76   88.44  144.67   0.0008010
   78.47   84.20  143.23   0.0007914
   87.45   74.44   89.19   0.0006891
   98.35   68.99   84.77   0.0005834
  108.22   65.19   80.06   0.0005771
   61.41   90.80  155.14   0.0006069
   68.39   86.10  154.22   0.0006060
   77.52   80.21  152.31   0.0006679
   85.10   68.51   97.87   0.0003464
   95.76   61.72   92.42   0.0002786
  105.33   56.85   86.49   0.0002783
   60.92   89.95  164.97   0.0003107
   66.80   84.18  164.01   0.0003078
   75.14   76.45  161.83   0.0003428
   82.20   61.89  106.81   0.0001298
   93.67   52.99   99.55   0.0001085
   56.78   93.56  175.17   0.0001198
   59.68   89.74  174.74   0.0001292
   64.39   82.96  174.02   0.0001292
   72.40   72.61  171.57   0.0001396
   80.99   52.15  114.37   0.0000542
  -35.00   65.10   15.00   0.0000000
  -35.00   65.10   25.00   0.0000000
   58.37   90.76 -175.68   0.0000578
   61.70   82.81 -175.90   0.0000644
   69.48   67.25 -178.64   0.0000659
  -35.00   75.06    5.00   0.0000000
  -35.00   75.06   15.00   0.0000000
  -35.00   75.06   25.00   0.0000000
  -35.00   75.06   35.00   0.0000000
  -35.00   75.06   45.00   0.0000000
  -35.00   75.06   55.00   0.0000000
  -35.00   85.02    5.00   0.0000000
  -35.00   85.02   15.00   0.0000000
  -35.00   85.02   25.00   0.0000000
  -35.00   85.02   35.00   0.0000000
  -35.00   85.02   45.00   0.0000000
  -35.00   85.02   55.00   0.0000000
  -76.17   98.92 -125.43   0.0002213
  -65.82   99.83 -124.53   0.0002040
  -60.23  100.05 -124.03   0.0002021
 -115.18   94.64  -66.95   0.0002083
 -105.14   95.94  -66.95   0.0002187
  -90.86   97.55  -66.42   0.0002434
  102.20   85.00   72.44   0.0006461
  112.47   82.87   70.47   0.0005565
   61.62   95.51  135.81   0.0005356
   68.71   93.57  135.72   0.0005925
   78.49   90.87  135.33   0.0006221
   90.23   87.78  134.21   0.0006922
  100.43   79.52   80.45   0.0008296
  110.51   76.02   77.40   0.0008018
   62.51   96.15  145.49   0.0007617
   69.80   92.65  145.34   0.0008176
   79.26   88.31  144.63   0.0008805
   89.72   83.71  142.96   0.0008824
   98.42   73.95   88.82   0.0007069
  108.02   69.20   84.86   0.0006473
   63.49   96.49  155.38   0.0006847
   70.24   91.67  155.15   0.0007065
   78.97   85.74  154.15   0.0007039
   88.50   79.58  152.02   0.0007633
   95.73   68.24   97.59   0.0004049
  104.54   62.49   93.00   0.0003772
   64.33   96.62  165.36   0.0004111
   70.52   90.63  165.01   0.0004137
   77.77   83.21  163.88   0.0004045
   86.53   75.27  161.35   0.0004260
   91.69   62.69  107.16   0.0001889
   99.36   56.01  102.22   0.0001930
   65.05   96.79  175.32   0.0002204
   70.22   89.49  174.93   0.0002152
   76.25   80.56  173.72   0.0002039
   83.66   71.24  171.11   0.0002016
   86.00   57.84  117.87   0.0001033
   62.01  103.18 -174.26   0.0001152
   65.37   97.00 -174.75   0.0001227
   69.31   87.94 -175.10   0.0001273
   74.27   78.00 -176.30   0.0001234
   79.42   67.79 -178.43   0.0001087
   78.51   54.77  129.98   0.0000635
   63.81  104.47 -164.72   0.0000783
   66.02   96.94 -164.76   0.0000844
   68.49   86.53 -165.15   0.0000896
   71.36   75.90 -166.04   0.0000889
   74.17   65.27 -167.36   0.0000695
  -25.00   85.02    5.00   0.0000000
   64.54  105.45 -155.19   0.0000453
   64.96   96.03 -155.06   0.0000444
   66.15   85.38 -155.11   0.0000497
   67.30   74.54 -155.42   0.0000545
   67.07   62.94 -155.26   0.0000350
  -66.31   98.79 -125.46   0.0002040
  -60.33   99.08 -125.09   0.0001982
 -114.68   93.24  -66.82   0.0002031
 -104.34   94.66  -67.05   0.0002256
  -90.84   96.13  -66.82   0.0002501
  -76.95   97.75  -66.18   0.0002199
  -68.79  104.37 -132.55   0.0005772
  -61.67  105.81 -131.17   0.0005257
   69.16   96.41  135.63   0.0005494
   78.87   93.69  135.73   0.0006174
   90.55   90.50  135.16   0.0006589
  -79.86  101.77  -74.20   0.0006081
  111.00   79.34   80.24   0.0007710
   63.56  100.29  144.92   0.0007858
   70.88   96.98  145.35   0.0008052
   80.18   92.63  145.35   0.0008761
   90.48   87.86  144.46   0.0009670
  101.02   83.31  142.68   0.0008348
  108.82   73.69   88.59   0.0007305
   65.41  102.15  154.81   0.0006939
   72.22   97.38  155.26   0.0007451
   80.67   91.53  155.15   0.0007761
   89.92   85.17  153.97   0.0007900
   99.51   79.10  151.72   0.0007859
  105.62   68.47   97.57   0.0004626
   67.55  103.58  164.88   0.0004491
   73.58   97.51  165.27   0.0004705
   80.97   90.29  165.01   0.0004701
   88.90   82.57  163.64   0.0004607
   97.25   75.18  161.13   0.0004786
  101.20   63.51  107.33   0.0002341
   69.63  104.46  175.07   0.0002491
   74.88   97.35  175.31   0.0002607
   80.50   88.77  174.94   0.0002499
   86.99   79.74  173.55   0.0002354
   94.04   71.25  170.99   0.0002375
   94.89   59.36  118.40   0.0001334
   71.60  105.05 -174.77   0.0001545
   75.57   96.68 -174.69   0.0001548
   80.18   87.41 -175.14   0.0001467
   84.92   77.70 -176.44   0.0001394
   89.72   68.16 -178.51   0.0001289
   87.73   56.59  130.12   0.0000884
   74.01  105.55 -164.57   0.0001102
   76.57   96.16 -164.69   0.0001180
   78.99   86.12 -165.16   0.0001209
   81.95   75.94 -166.16   0.0001131
   84.30   65.77 -167.39   0.0000886
   79.06   55.14  142.32   0.0000607
   76.02  105.56 -154.50   0.0000853
   76.87   95.60 -154.79   0.0000855
   78.23   85.32 -155.24   0.0000952
   79.41   74.93 -155.96   0.0000980
   79.30   64.61 -156.36   0.0000640
  -60.37   98.09 -125.94   0.0001943
 -114.51   91.82  -66.48   0.0002017
 -104.25   93.26  -66.94   0.0002210
  -90.77   95.00  -67.02   0.0002559
  -76.94   96.45  -66.67   0.0002249
  -66.31   97.59  -66.16   0.0002016
  -61.72  103.48 -133.06   0.0005619
 -113.32   89.80  -74.82   0.0005411
 -103.32   92.59  -75.59   0.0005998
  -91.68   95.78  -75.72   0.0006953
  -79.67   99.05  -75.16   0.0006214
  -69.19  101.77  -74.10   0.0005762
  -64.05  108.71 -141.51   0.0007534
   71.49  101.48  144.59   0.0007679
 -103.51   91.31  -85.14   0.0008222
  -92.71   96.37  -85.43   0.0009442
  -82.17  101.21  -84.75   0.0009129
  -72.00  105.63  -83.23   0.0007742
  -67.32  113.59 -150.64   0.0007182
   74.17  103.21  154.54   0.0007098
   82.51   97.46  155.30   0.0007772
  -93.86   96.67  -95.34   0.0008366
  -84.41  103.13  -94.64   0.0007947
  -75.05  109.16  -92.86   0.0007633
  -71.69  117.91 -160.54   0.0004690
   76.75  104.61  164.66   0.0004751
   83.98   97.57  165.32   0.0005018
   91.69   89.90  164.95   0.0005131
  -87.00  104.62 -104.77   0.0004999
  -78.87  112.06 -103.03   0.0004921
   73.97  112.44  173.61   0.0002422
   79.47  105.48  174.92   0.0002618
   85.04   97.27  175.36   0.0002717
   91.29   88.49  174.90   0.0002660
   98.02   79.81  173.33   0.0002548
  -83.18  114.41 -113.66   0.0002470
   77.25  113.75 -175.51   0.0001340
   81.71  105.68 -174.85   0.0001538
   86.18   96.71 -174.61   0.0001464
   90.65   87.20 -175.16   0.0001387
   95.11   77.53 -176.45   0.0001378
  100.17   68.42 -178.67   0.0001288
   79.77  114.34 -163.90   0.0000865
   84.31  105.80 -164.55   0.0001115
   86.46   96.01 -164.66   0.0001097
   89.11   85.93 -165.14   0.0001105
   92.27   75.93 -166.22   0.0001059
   94.65   65.99 -167.54   0.0000809
   83.31  114.88 -153.16   0.0000672
   86.27  105.58 -154.43   0.0000955
   87.32   95.56 -154.72   0.0000968
   88.16   85.22 -155.21   0.0001032
   89.42   74.91 -155.95   0.0001002
   89.04   64.71 -156.25   0.0000671
